DTS Sentinel unit serial number:	SN409020Multiplexer serial number:	ORYXHardware model number:	OX4-SRSoftware version number:	ORYX F/W v3.00 Oryx Data Collector v3.7.2.0data status	okinstallation	HaddamTimeLapsedifferential loss correction	single-endedforward channel	channel 3reverse channel	N/Adate	2011/06/21time	14:56:17forward acquisition time	30.00reverse acquisition time	0.00gamma	498.7831k internal	0.1823k external	0.1823temperature offset calibration	1.0074default loss term (dB/km)	0.3790temperature slope calibration	1.3530multiplexer offset coefficient	1.0000multiplexer slope coefficient	1.0000fibre end	0.00T internal ref (°C)	38.25T ext. ref 1 (°C)	30.61T ext. ref 2 (°C)	0.25length (m)	temperature (°C)	Stokes	anti-Stokes-747.200	-145.847	0.122	0.014
-746.185	-88.508	-0.205	-0.078
-745.171	-200.000	-0.057	-0.468
-744.156	53.540	-0.374	0.458
-743.142	800.000	0.056	0.291
-742.127	-99.961	-0.438	0.139
-741.112	138.322	-0.114	-0.191
-740.098	97.705	0.137	-0.201
-739.083	-200.000	0.012	0.090
-738.069	116.780	0.356	0.558
-737.054	-30.564	0.305	-0.220
-736.039	-200.000	-0.025	0.204
-735.025	533.592	0.057	-0.173
-734.010	15.609	0.175	0.175
-732.996	-12.039	-0.242	0.202
-731.981	28.336	0.268	0.288
-730.966	101.367	0.356	0.529
-729.952	39.850	-0.281	0.322
-728.937	-105.644	-0.448	-0.129
-727.923	-200.000	0.002	0.091
-726.908	-169.249	-0.385	-0.018
-725.894	30.566	0.221	-0.241
-724.879	-134.041	0.376	0.059
-723.864	-88.176	-0.271	-0.103
-722.850	241.602	-0.150	-0.321
-721.835	8.913	0.567	-0.545
-720.821	-115.598	-0.265	0.063
-719.806	611.452	0.055	0.175
-718.791	-85.604	0.380	-0.150
-717.777	239.956	0.282	-0.601
-716.762	-115.457	-0.111	-0.027
-715.748	-111.074	-0.073	-0.019
-714.733	-42.168	-0.566	-0.368
-713.718	-200.000	0.017	-0.270
-712.704	-69.807	-0.247	0.120
-711.689	-200.000	-0.047	0.322
-710.675	-186.290	0.226	0.004
-709.660	-108.820	0.272	-0.074
-708.645	88.177	-0.254	0.359
-707.631	-75.934	0.371	-0.166
-706.616	120.310	0.120	0.190
-705.602	100.917	-0.248	-0.369
-704.587	-133.227	0.141	0.023
-703.572	242.492	-0.280	-0.599
-702.558	-41.093	-0.330	0.217
-701.543	35.961	-0.136	0.152
-700.529	-65.016	0.161	0.083
-699.514	-121.257	0.254	-0.054
-698.499	-68.226	0.351	-0.173
-697.485	-71.337	-0.160	0.076
-696.470	418.848	0.027	-0.074
-695.456	800.000	-0.005	0.024
-694.441	-156.294	-0.106	0.008
-693.426	-121.683	-0.309	-0.065
-692.412	-27.460	0.247	-0.182
-691.397	368.644	-0.194	-0.502
-690.383	208.296	-0.122	-0.244
-689.368	-63.610	-0.404	-0.210
-688.354	-95.657	-0.911	0.308
-687.339	-2.349	0.143	-0.127
-686.324	-1.813	0.471	0.422
-685.310	-65.254	-0.407	0.208
-684.295	44.761	0.134	-0.157
-683.281	-107.892	-0.311	-0.086
-682.266	800.000	0.051	-0.252
-681.251	197.526	0.172	-0.336
-680.237	529.268	0.086	-0.261
-679.222	-90.489	0.649	-0.238
-678.208	-4.642	-0.273	-0.239
-677.193	68.263	0.374	-0.488
-676.178	-200.000	0.048	-0.330
-675.164	4.206	-0.225	0.210
-674.149	-200.000	-0.007	0.295
-673.135	-16.078	0.423	0.342
-672.120	-69.928	-0.138	0.067
-671.105	-200.000	0.015	0.083
-670.091	-200.000	0.023	0.152
-669.076	54.590	-0.117	-0.143
-668.062	-5.441	-0.298	-0.260
-667.047	-96.964	-0.015	0.005
-666.032	-55.694	0.261	-0.148
-665.018	-171.891	0.313	-0.013
-664.003	-147.734	0.307	-0.032
-662.989	257.250	-0.164	-0.359
-661.974	-141.570	0.151	-0.019
-660.959	-76.924	0.052	-0.023
-659.945	1.066	-0.198	-0.181
-658.930	715.699	0.019	0.063
-657.916	84.115	-0.070	-0.097
-656.901	7.273	-0.275	0.260
-655.886	800.000	-0.040	-0.181
-654.872	800.000	-0.029	-0.131
-653.857	-144.998	-0.228	0.026
-652.843	40.483	-0.159	-0.182
-651.828	5.260	0.203	0.191
-650.814	-70.671	-0.286	-0.137
-649.799	-150.334	-0.472	-0.046
-648.784	-70.503	0.124	-0.059
-647.770	27.466	0.376	-0.402
-646.755	800.000	-0.041	0.210
-645.741	-112.211	0.292	-0.074
-644.726	-200.000	0.004	-0.272
-643.711	-133.663	-0.410	0.065
-642.697	-64.967	-0.207	0.106
-641.682	210.234	-0.144	0.289
-640.668	-200.000	0.090	-0.525
-639.653	800.000	0.125	-0.515
-638.638	249.471	-0.199	-0.429
-637.624	-200.000	-0.008	0.179
-636.609	-112.553	0.678	-0.170
-635.595	138.681	0.206	-0.344
-634.580	-130.998	0.314	0.053
-633.565	-145.439	0.436	-0.049
-632.551	-72.038	0.324	0.152
-631.536	-5.611	-0.105	0.092
-630.522	-149.901	-0.138	0.014
-629.507	36.127	-0.304	-0.340
-628.492	800.000	-0.019	0.071
-627.478	-50.849	0.183	-0.109
-626.463	-45.156	0.257	0.162
-625.449	-94.148	-0.403	0.139
-624.434	187.256	0.193	-0.367
-623.419	-170.242	0.534	0.024
-622.405	-200.000	0.021	-0.249
-621.390	-163.934	-0.343	-0.020
-620.376	-68.466	-0.271	0.133
-619.361	1.463	0.462	0.421
-618.346	-71.597	0.516	-0.244
-617.332	-6.504	-0.202	-0.175
-616.317	-141.655	-0.641	-0.081
-615.303	108.313	0.218	-0.331
-614.288	-102.975	-0.272	-0.081
-613.273	-80.966	0.073	0.031
-612.259	19.355	-0.117	0.119
-611.244	-74.204	-0.043	-0.020
-610.230	-2.825	0.105	-0.093
-609.215	-192.555	0.397	0.005
-608.201	195.930	-0.296	0.573
-607.186	346.711	0.039	-0.098
-606.171	87.206	0.323	0.454
-605.157	-200.000	0.001	-0.083
-604.142	-35.090	0.488	0.337
-603.128	133.940	0.142	0.234
-602.113	-131.472	0.216	0.036
-601.098	-200.000	0.026	0.390
-600.084	-51.079	-0.314	0.186
-599.069	-47.236	-0.241	-0.149
-598.055	-33.625	0.387	-0.271
-597.040	54.088	-0.139	0.170
-596.025	-70.844	0.108	-0.051
-595.011	-53.494	-0.148	0.086
-593.996	-117.281	0.478	0.109
-592.982	-37.028	-0.115	0.078
-591.967	-180.855	0.161	-0.004
-590.952	800.000	-0.114	0.542
-589.938	-115.700	-0.421	-0.099
-588.923	800.000	-0.100	-0.386
-587.909	-200.000	0.030	-0.245
-586.894	-143.870	0.340	-0.040
-585.879	-23.290	0.086	-0.065
-584.865	108.831	-0.112	0.170
-583.850	-200.000	0.048	-0.276
-582.836	-155.418	-0.058	0.005
-581.821	448.725	0.201	0.564
-580.806	-171.571	-0.288	-0.012
-579.792	-33.222	-0.402	-0.281
-578.777	-200.000	0.537	0.003
-577.763	-128.914	0.392	0.069
-576.748	-200.000	0.049	0.422
-575.733	149.604	-0.284	0.488
-574.719	-117.156	-0.435	-0.100
-573.704	-111.938	-0.234	0.059
-572.690	-146.013	-0.296	-0.033
-571.675	-200.000	0.048	0.491
-570.661	64.119	-0.144	-0.184
-569.646	-95.906	0.170	-0.057
-568.631	800.000	-0.066	0.349
-567.617	-11.815	0.337	0.280
-566.602	-33.515	0.350	0.244
-565.588	-142.799	0.461	0.056
-564.573	-114.990	0.215	0.051
-563.558	-77.126	-0.582	0.256
-562.544	-165.489	-0.276	-0.015
-561.529	14.798	-0.666	0.659
-560.515	-200.000	-0.037	0.433
-559.500	-62.331	-0.205	0.107
-558.485	-104.959	0.263	-0.076
-557.471	-147.796	0.545	0.057
-556.456	113.878	0.350	0.540
-555.442	-109.528	0.364	0.097
-554.427	-74.512	-0.585	0.266
-553.412	13.325	-0.388	0.380
-552.398	-172.725	0.282	0.011
-551.383	725.566	-0.039	0.133
-550.369	-78.619	-0.308	0.133
-549.354	-200.000	0.070	0.715
-548.339	-133.805	0.167	-0.026
-547.325	-70.759	0.135	0.064
-546.310	-21.317	0.143	0.111
-545.296	-23.178	-0.218	0.166
-544.281	-76.427	0.131	0.058
-543.266	-77.349	0.247	-0.108
-542.252	-129.150	-0.177	0.031
-541.237	-107.630	0.496	-0.136
-540.223	660.737	0.056	-0.184
-539.208	-99.761	0.217	-0.068
-538.193	-21.061	0.211	-0.163
-537.179	15.188	0.198	0.196
-536.164	-105.512	-0.180	0.052
-535.150	349.882	0.198	-0.497
-534.135	250.765	-0.247	0.532
-533.121	8.424	-0.445	-0.423
-532.106	-200.000	-0.047	0.590
-531.091	-139.070	0.633	0.086
-530.077	-74.728	0.128	-0.058
-529.062	46.117	-0.212	0.249
-528.048	68.686	-0.203	0.264
-527.033	-8.579	-0.364	-0.309
-526.018	-130.520	-0.370	-0.063
-525.004	32.667	0.161	-0.177
-523.989	-200.000	-0.047	-0.304
-522.975	744.779	-0.228	0.782
-521.960	-143.644	-0.307	-0.036
-520.945	-200.000	-0.029	-0.281
-519.931	106.254	0.166	0.248
-518.916	31.854	-0.361	0.394
-517.902	-93.038	-0.312	0.109
-516.887	-111.913	0.098	0.025
-515.872	-200.000	0.010	0.065
-514.858	-30.008	-0.176	0.127
-513.843	-51.803	-0.075	0.044
-512.829	-79.064	0.412	0.176
-511.814	57.390	-0.308	0.381
-510.799	-138.772	-0.204	0.028
-509.785	-37.202	0.466	0.315
-508.770	40.033	-0.345	-0.391
-507.756	-51.267	-0.288	-0.170
-506.741	9.736	0.212	0.203
-505.726	4.264	0.246	-0.228
-504.712	-77.456	-0.560	-0.244
-503.697	-156.544	-0.104	0.008
-502.683	800.000	0.066	0.316
-501.668	-123.760	-0.314	-0.062
-500.653	169.152	0.179	-0.323
-499.639	-59.515	-0.074	0.040
-498.624	-158.837	0.436	0.031
-497.610	-118.502	0.232	0.052
-496.595	-57.029	-0.213	-0.119
-495.581	800.000	0.072	-0.263
-494.566	100.169	-0.170	-0.250
-493.551	-19.818	-0.312	-0.243
-492.537	5.027	0.221	-0.205
-491.522	95.979	0.225	0.325
-490.508	-17.532	-0.289	-0.229
-489.493	266.122	-0.078	-0.173
-488.478	-40.766	0.346	0.226
-487.464	189.507	0.195	-0.369
-486.449	-147.918	-0.193	-0.020
-485.435	-132.053	-0.170	-0.028
-484.420	-200.000	0.064	0.513
-483.405	-59.733	-0.443	-0.239
-482.391	263.967	-0.288	-0.635
-481.376	-104.894	0.436	-0.125
-480.362	800.000	-0.047	-0.184
-479.347	-119.444	0.063	0.014
-478.332	-29.955	0.109	-0.078
-477.318	-159.924	0.124	-0.008
-476.303	-200.000	0.017	-0.392
-475.289	-200.000	-0.028	-0.354
-474.274	104.920	-0.030	0.045
-473.259	-200.000	0.008	0.097
-472.245	609.145	-0.111	-0.353
-471.230	-88.166	-0.542	-0.204
-470.216	329.511	-0.231	-0.564
-469.201	-141.692	0.160	-0.020
-468.186	249.236	-0.127	-0.273
-467.172	-200.000	0.012	-0.069
-466.157	38.076	-0.188	0.212
-465.143	-135.950	-0.334	-0.049
-464.128	418.529	0.142	0.385
-463.113	-5.894	-0.215	-0.186
-462.099	289.226	-0.161	-0.370
-461.084	-46.185	-0.303	-0.187
-460.070	-81.413	-0.176	0.073
-459.055	155.326	0.326	-0.567
-458.040	-52.738	-0.388	-0.225
-457.026	-200.000	0.041	-0.422
-456.011	-119.724	0.251	-0.054
-454.997	800.000	-0.119	-0.625
-453.982	-200.000	0.001	-0.097
-452.968	139.310	-0.147	-0.245
-451.953	162.362	0.159	-0.281
-450.938	164.884	0.178	-0.317
-449.924	-77.545	-0.257	0.112
-448.909	-146.660	0.345	-0.037
-447.895	197.142	0.122	-0.236
-446.880	229.778	-0.066	0.137
-445.865	-95.190	-0.468	-0.158
-444.851	40.943	-0.113	-0.129
-443.836	-111.119	0.385	0.099
-442.822	-200.000	0.016	-0.612
-441.807	114.986	-0.223	0.343
-440.792	134.366	0.226	-0.369
-439.778	-44.169	-0.289	0.182
-438.763	-144.612	-0.469	0.054
-437.749	-14.161	0.247	-0.200
-436.734	-200.000	-0.074	0.517
-435.719	-35.735	-0.176	-0.120
-434.705	-4.737	0.387	0.336
-433.690	71.940	0.166	0.218
-432.676	583.889	0.083	0.257
-431.661	-7.256	0.188	0.160
-430.646	-14.226	-0.218	0.177
-429.632	270.645	-0.288	0.640
-428.617	-120.228	-0.097	-0.021
-427.603	24.286	-0.067	0.070
-426.588	617.067	-0.029	-0.092
-425.573	-55.199	0.190	0.107
-424.559	80.239	-0.254	0.345
-423.544	-14.351	-0.110	-0.089
-422.530	247.353	0.193	0.411
-421.515	104.178	-0.274	-0.407
-420.500	-123.510	-0.399	-0.079
-419.486	-200.000	0.030	-0.274
-418.471	216.818	0.223	0.449
-417.457	-110.889	-0.167	-0.043
-416.442	-155.555	-0.231	-0.018
-415.428	494.919	0.151	0.439
-414.413	-118.509	-0.284	0.063
-413.398	29.547	-0.381	0.408
-412.384	-107.856	-0.572	0.156
-411.369	238.902	-0.167	-0.350
-410.355	-129.158	-0.126	-0.022
-409.340	-80.172	-0.115	-0.048
-408.325	-200.000	-0.007	0.076
-407.311	-111.113	0.233	0.060
-406.296	800.000	0.101	-0.492
-405.282	-200.000	-0.008	-0.291
-404.267	82.263	-0.296	-0.404
-403.252	79.318	-0.108	-0.146
-402.238	-27.361	-0.476	-0.348
-401.223	-42.219	-0.064	-0.041
-400.209	375.109	-0.092	0.237
-399.194	-199.936	0.313	-0.002
-398.179	-143.520	0.386	0.046
-397.165	-139.319	-0.570	-0.076
-396.150	-134.527	-0.578	-0.088
-395.136	-28.765	0.254	-0.183
-394.121	16.207	0.270	-0.268
-393.106	0.108	0.173	0.155
-392.092	319.987	0.171	-0.409
-391.077	204.959	0.335	-0.657
-390.063	-167.372	0.475	0.024
-389.048	86.744	-0.089	-0.123
-388.033	57.855	-0.197	0.243
-387.019	-200.000	-0.016	-0.428
-386.004	388.555	0.090	-0.235
-384.990	-200.000	-0.015	0.496
-383.975	-71.066	0.141	-0.067
-382.960	-119.982	-0.487	-0.104
-381.946	100.252	0.054	-0.078
-380.931	-64.587	-0.232	0.118
-379.917	-98.315	-0.376	-0.120
-378.902	-200.000	0.024	-0.201
-377.888	-200.000	-0.011	0.142
-376.873	-125.266	-0.266	0.051
-375.858	-150.434	0.464	0.044
-374.844	-12.931	-0.197	-0.161
-373.829	117.930	-0.115	-0.178
-372.815	-183.393	0.233	0.005
-371.800	-39.895	0.279	0.183
-370.785	379.008	0.235	0.608
-369.771	9.123	0.058	-0.055
-368.756	-38.460	0.062	0.041
-367.742	-200.000	-0.027	-0.236
-366.727	114.373	0.126	0.193
-365.712	56.305	0.135	0.165
-364.698	365.921	-0.137	0.350
-363.683	-107.416	0.067	-0.018
-362.669	800.000	-0.060	-0.223
-361.654	-84.052	-0.329	0.131
-360.639	800.000	0.110	0.456
-359.625	-33.663	-0.221	-0.153
-358.610	120.894	-0.097	0.152
-357.596	-200.000	-0.013	0.412
-356.581	444.749	-0.078	-0.215
-355.566	-89.447	0.279	0.103
-354.552	-108.513	0.631	-0.169
-353.537	239.686	-0.155	-0.325
-352.523	-200.000	-0.045	0.440
-351.508	-67.189	-0.154	-0.076
-350.493	130.907	0.154	-0.249
-349.479	-82.826	-0.249	-0.101
-348.464	293.777	-0.090	0.207
-347.450	21.045	0.027	-0.028
-346.435	446.988	-0.109	0.303
-345.420	-97.605	0.508	-0.164
-344.406	319.266	-0.072	-0.172
-343.391	38.649	-0.035	0.039
-342.377	-66.415	-0.302	-0.150
-341.362	-131.939	0.468	-0.076
-340.348	-76.068	-0.177	0.078
-339.333	36.379	-0.287	0.318
-338.318	-200.000	-0.019	0.130
-337.304	177.046	-0.076	-0.140
-336.289	285.437	0.123	-0.280
-335.275	249.683	0.274	0.585
-334.260	-114.592	0.374	0.089
-333.245	46.538	-0.344	0.401
-332.231	-43.876	-0.229	0.145
-331.216	-89.349	0.616	-0.227
-330.202	-200.000	0.044	0.283
-329.187	-121.169	-0.309	-0.064
-328.172	396.026	0.113	-0.297
-327.158	-25.415	-0.376	0.279
-326.143	271.959	-0.100	-0.222
-325.129	-195.299	0.211	0.002
-324.114	-190.942	-0.235	0.003
-323.099	-33.242	0.304	0.211
-322.085	1.621	0.134	0.121
-321.070	37.981	-0.256	-0.285
-320.056	-67.424	-0.238	-0.117
-319.041	-61.873	0.168	0.088
-318.026	-79.419	-0.408	-0.172
-317.012	-6.189	0.223	-0.191
-315.997	-95.864	-0.127	0.042
-314.983	-200.000	-0.042	0.456
-313.968	8.107	0.078	-0.073
-312.953	-18.032	0.546	0.428
-311.939	86.481	0.081	0.113
-310.924	-34.596	0.596	0.409
-309.910	-58.272	0.299	-0.163
-308.895	39.271	0.275	0.309
-307.880	-79.354	-0.204	-0.086
-306.866	-121.151	0.208	-0.043
-305.851	-200.000	-0.015	-0.213
-304.837	-147.172	-0.338	-0.036
-303.822	46.226	0.179	-0.208
-302.807	800.000	-0.044	-0.239
-301.793	3.754	-0.333	0.305
-300.778	-200.000	-0.021	-0.512
-299.764	-58.215	-0.105	0.057
-298.749	620.945	0.049	-0.155
-297.735	55.769	0.092	-0.111
-296.720	-145.746	-0.483	-0.053
-295.705	-43.800	-0.148	0.093
-294.691	-102.941	-0.100	0.030
-293.676	-34.948	0.168	0.114
-292.662	56.030	-0.106	-0.130
-291.647	-71.319	0.344	-0.161
-290.632	494.158	-0.111	0.320
-289.618	74.432	0.170	-0.224
-288.603	800.000	0.089	0.362
-287.589	-47.619	-0.289	0.175
-286.574	-200.000	0.000	-0.395
-285.559	88.468	0.395	-0.551
-284.545	-157.264	0.623	-0.047
-283.530	-164.795	-0.391	-0.022
-282.516	-65.770	0.212	0.106
-281.501	800.000	-0.063	0.273
-280.486	-200.000	-0.045	0.407
-279.472	-140.077	0.754	0.098
-278.457	-31.549	-0.208	-0.146
-277.443	574.466	0.056	0.173
-276.428	372.650	-0.144	-0.368
-275.413	-75.281	-0.273	-0.122
-274.399	-76.761	-0.349	-0.152
-273.384	-83.211	0.597	-0.239
-272.370	-167.833	0.218	-0.011
-271.355	-149.120	0.525	0.052
-270.340	-18.495	0.174	-0.136
-269.326	-200.000	0.103	-0.000
-268.311	-200.000	-0.063	0.443
-267.297	532.186	0.082	-0.245
-266.282	425.858	0.091	-0.247
-265.267	36.933	0.138	0.152
-264.253	324.089	-0.095	0.228
-263.238	-154.348	0.300	0.025
-262.224	-109.134	0.518	0.137
-261.209	-85.120	0.094	0.037
-260.195	-164.049	0.352	-0.020
-259.180	783.998	-0.036	-0.123
-258.165	15.412	0.230	-0.226
-257.151	64.060	0.477	-0.601
-256.136	22.440	-0.080	-0.082
-255.122	800.000	0.072	-0.251
-254.107	-200.000	0.186	-0.001
-253.092	-133.051	-0.338	-0.053
-252.078	14.504	0.193	0.189
-251.063	-146.496	-0.163	-0.018
-250.049	103.508	-0.143	-0.210
-249.034	74.107	0.107	-0.140
-248.019	-200.000	-0.013	0.153
-247.005	10.487	0.247	-0.235
-245.990	321.607	0.078	0.187
-244.976	255.497	-0.285	0.612
-243.961	-18.338	0.254	0.198
-242.946	154.706	-0.040	-0.068
-241.932	81.963	0.280	-0.380
-240.917	-166.261	-0.327	0.017
-239.903	75.516	0.219	0.289
-238.888	800.000	-0.066	0.236
-237.873	262.585	-0.028	0.060
-236.859	72.480	0.337	-0.440
-235.844	-45.085	0.066	-0.041
-234.830	-54.629	-0.175	-0.099
-233.815	-1.107	-0.266	0.235
-232.800	-103.376	0.359	0.105
-231.786	50.298	-0.252	0.298
-230.771	-200.000	-0.075	-0.655
-229.757	800.000	-0.070	0.282
-228.742	242.570	0.238	0.500
-227.727	-115.038	0.423	0.100
-226.713	76.916	-0.096	0.128
-225.698	10.132	-0.084	-0.080
-224.684	-200.000	-0.001	0.212
-223.669	387.554	0.056	-0.145
-222.655	-33.300	0.111	-0.077
-221.640	-143.733	-0.509	0.060
-220.625	-25.113	0.284	-0.210
-219.611	800.000	0.052	-0.234
-218.596	-200.000	0.000	0.046
-217.582	-128.785	0.420	-0.073
-216.567	-95.101	-0.012	0.004
-215.552	62.180	0.365	0.456
-214.538	192.491	-0.099	-0.187
-213.523	142.860	0.317	0.529
-212.509	-65.211	-0.158	0.079
-211.494	-51.146	0.542	0.317
-210.479	-200.000	-0.009	0.139
-209.465	-162.537	0.096	-0.006
-208.450	47.779	0.181	-0.211
-207.436	-53.122	-0.407	0.233
-206.421	242.449	-0.313	0.658
-205.406	-62.188	-0.280	-0.145
-204.392	800.000	-0.036	0.170
-203.377	62.911	-0.081	0.101
-202.363	-122.607	-0.236	-0.047
-201.348	59.458	0.119	0.147
-200.333	-128.379	0.279	-0.049
-199.319	584.422	-0.063	-0.195
-198.304	211.132	-0.031	-0.062
-197.290	-34.934	0.296	0.201
-196.275	-159.313	-0.144	0.010
-195.260	27.800	0.026	-0.027
-194.246	-5.412	-0.231	-0.198
-193.231	109.144	-0.487	-0.729
-192.217	-52.905	-0.156	0.089
-191.202	193.587	0.206	-0.390
-190.187	30.839	-0.042	0.045
-189.173	-200.000	-0.007	-0.670
-188.158	-111.062	0.147	-0.037
-187.144	-140.101	0.239	0.031
-186.129	-69.509	0.119	-0.057
-185.114	-99.527	-0.212	0.066
-184.100	-64.838	-0.541	0.272
-183.085	-200.000	0.026	-0.395
-182.071	-150.949	0.339	-0.032
-181.056	203.896	-0.027	0.052
-180.042	-7.960	-0.497	0.418
-179.027	170.618	-0.060	0.108
-178.012	-152.492	0.383	0.034
-176.998	-29.397	0.094	-0.067
-175.983	-166.827	-0.415	-0.021
-174.969	-56.226	0.318	0.176
-173.954	-138.026	0.462	-0.064
-172.939	533.938	-0.161	-0.478
-171.925	-200.000	-0.003	-0.342
-170.910	-144.535	0.140	0.016
-169.896	153.401	-0.200	0.343
-168.881	-115.501	-0.259	0.060
-167.866	-180.007	-0.371	-0.010
-166.852	73.825	-0.157	-0.205
-165.837	-14.335	0.202	0.162
-164.823	-200.000	-0.026	-0.218
-163.808	-45.668	0.529	0.326
-162.793	-2.911	-0.305	0.265
-161.779	-104.114	-0.533	-0.154
-160.764	-120.618	-0.261	0.055
-159.750	63.590	0.246	-0.309
-158.735	39.068	0.306	-0.341
-157.720	-104.433	-0.383	-0.110
-156.706	-123.881	-0.358	-0.070
-155.691	107.786	-0.021	0.031
-154.677	170.023	-0.231	0.414
-153.662	-50.602	0.043	0.025
-152.647	800.000	0.095	-0.353
-151.633	-151.973	-0.400	0.036
-150.618	-2.746	0.035	0.030
-149.604	800.000	0.016	-0.081
-148.589	800.000	0.057	-0.230
-147.574	-172.335	-0.279	0.011
-146.560	-142.435	-0.271	-0.033
-145.545	-163.488	-0.467	0.027
-144.531	-200.000	0.028	0.185
-143.516	800.000	0.094	0.408
-142.502	-32.011	0.331	0.231
-141.487	419.793	-0.115	-0.308
-140.472	-104.461	-0.237	0.068
-139.458	-59.960	0.314	-0.167
-138.443	-28.031	0.285	-0.205
-137.429	-200.000	-0.027	0.584
-136.414	77.947	-0.158	-0.211
-135.399	51.440	-0.216	-0.256
-134.385	175.879	-0.160	-0.290
-133.370	-200.000	-0.028	0.251
-132.356	-131.957	-0.368	0.059
-131.341	126.262	-0.179	-0.282
-130.326	137.096	-0.112	0.183
-129.312	-57.163	0.313	-0.171
-128.297	800.000	-0.100	0.451
-127.283	-200.000	0.054	0.341
-126.268	-43.076	-0.323	0.203
-125.253	231.615	-0.359	0.735
-124.239	-17.175	-0.166	-0.130
-123.224	113.362	0.159	-0.240
-122.210	59.911	-0.250	0.307
-121.195	489.976	-0.084	-0.240
-120.180	194.802	0.148	0.281
-119.166	80.355	-0.270	0.362
-118.151	781.024	-0.133	-0.456
-117.137	-3.861	-0.117	-0.101
-116.122	-31.869	-0.121	-0.084
-115.107	100.231	0.259	0.375
-114.093	800.000	-0.030	0.127
-113.078	-62.341	-0.039	-0.020
-112.064	543.353	-0.123	-0.366
-111.049	6.576	0.238	0.220
-110.034	0.627	0.169	0.150
-109.020	-200.000	-0.022	0.194
-108.005	299.023	-0.072	0.167
-106.991	-77.435	-0.170	-0.073
-105.976	-38.879	0.295	-0.193
-104.962	-200.000	-0.017	-0.301
-103.947	-53.797	-0.659	0.373
-102.932	419.043	-0.087	-0.232
-101.918	-78.332	0.034	0.014
-100.903	107.858	0.119	-0.176
-99.889	241.773	-0.189	0.395
-98.874	309.244	-0.221	-0.516
-97.859	17.531	-0.237	-0.234
-96.845	-200.000	0.016	-0.237
-95.830	-186.035	0.227	0.004
-94.816	-200.000	-0.007	0.106
-93.801	-130.696	-0.466	0.077
-92.786	-200.000	-0.018	0.153
-91.772	-138.974	0.151	0.020
-90.757	130.120	-0.180	-0.287
-89.743	-108.429	-0.278	-0.074
-88.728	234.432	0.187	-0.385
-87.713	-26.556	-0.189	-0.138
-86.699	-58.969	0.350	-0.187
-85.684	127.875	-0.092	0.146
-84.670	-3.036	-0.346	0.300
-83.655	-200.000	0.037	0.462
-82.640	5.993	-0.176	0.162
-81.626	-131.985	-0.395	-0.063
-80.611	-131.151	-0.780	-0.128
-79.597	-30.504	-0.311	-0.218
-78.582	96.988	0.265	0.379
-77.567	-104.578	0.393	-0.112
-76.553	-1.130	-0.486	0.427
-75.538	164.590	-0.102	0.179
-74.524	-91.960	0.188	-0.066
-73.509	-200.000	-0.018	0.323
-72.494	-200.000	-0.024	0.326
-71.480	-132.371	0.628	-0.100
-70.465	-39.631	0.265	0.172
-69.451	1.085	-0.358	-0.319
-68.436	-118.453	-0.324	-0.071
-67.422	-200.000	-0.006	-0.155
-66.407	-200.000	0.007	-0.104
-65.392	-11.920	-0.504	0.410
-64.378	800.000	0.071	-0.377
-63.363	-27.539	-0.152	0.109
-62.349	-68.157	-0.262	0.126
-61.334	0.689	-1.223	-1.087
-60.319	-79.778	0.521	0.217
-59.305	339.930	-2.288	-5.568
-58.290	-18.938	2.752	2.123
-57.276	460.363	3.654	10.160
-56.261	-200.000	12.741	193.625
-55.246	516.543	1102.013	3216.015
-54.232	69.060	2749.840	3513.411
-53.217	73.281	2701.016	3512.732
-52.203	70.470	2433.887	3128.132
-51.188	43.550	2077.060	2359.564
-50.173	41.698	1939.005	2182.336
-49.159	39.317	1928.439	2144.309
-48.144	38.870	1924.959	2135.473
-47.130	38.803	1921.880	2131.237
-46.115	38.600	1920.991	2127.945
-45.100	38.554	1919.790	2126.038
-44.086	38.532	1918.068	2123.802
-43.071	38.446	1917.065	2121.675
-42.057	38.591	1915.325	2121.237
-41.042	38.538	1913.539	2118.594
-40.027	38.401	1912.902	2116.317
-39.013	38.452	1911.106	2114.804
-37.998	38.458	1909.228	2112.707
-36.984	38.402	1908.055	2110.716
-35.969	38.466	1906.920	2110.068
-34.954	38.382	1905.838	2107.881
-33.940	38.190	1905.516	2105.363
-32.925	38.359	1902.979	2104.307
-31.911	38.344	1902.142	2103.132
-30.896	38.445	1900.618	2102.450
-29.881	38.413	1898.899	2100.128
-28.867	38.382	1897.695	2098.370
-27.852	38.339	1896.103	2096.066
-26.838	38.116	1896.191	2093.680
-25.823	38.125	1894.804	2092.157
-24.809	38.315	1892.237	2091.292
-23.794	38.159	1891.336	2088.527
-22.779	38.324	1889.662	2088.373
-21.765	38.276	1888.366	2086.342
-20.750	38.305	1887.128	2085.200
-19.736	38.251	1886.628	2083.989
-18.721	38.154	1885.347	2081.445
-17.706	38.205	1883.573	2079.959
-16.692	38.328	1881.679	2079.092
-15.677	38.139	1881.598	2076.908
-14.663	38.153	1880.701	2075.985
-13.648	38.319	1878.087	2074.783
-12.633	38.236	1876.819	2072.416
-11.619	38.022	1876.698	2069.917
-10.604	38.175	1875.453	2070.095
-9.590	38.030	1874.745	2067.689
-8.575	38.093	1873.229	2066.599
-7.560	38.096	1872.209	2065.424
-6.546	38.120	1870.627	2063.850
-5.531	38.172	1868.516	2061.992
-4.517	38.104	1868.808	2061.519
-3.502	38.164	1867.466	2060.585
-2.487	38.172	1866.477	2059.498
-1.473	38.228	1863.729	2056.976
-0.458	38.406	1843.861	2036.834
0.556	34.420	1971.760	2120.922
1.571	33.334	2188.317	2340.091
2.586	35.060	2238.392	2415.262
3.600	35.208	2241.003	2419.677
4.615	35.471	2240.075	2421.712
5.629	35.379	2238.908	2418.993
6.644	35.515	2237.389	2418.787
7.659	35.574	2235.741	2417.466
8.673	35.835	2233.711	2418.276
9.688	35.246	2236.553	2413.609
10.702	31.126	2303.461	2431.681
11.717	27.066	2364.169	2440.754
12.731	13.956	2329.780	2229.261
13.746	2.274	2299.756	2043.971
14.761	0.603	2294.103	2016.293
15.775	0.376	2292.908	2011.955
16.790	0.428	2290.464	2010.263
17.804	0.231	2289.739	2006.750
18.819	0.270	2288.050	2005.557
19.834	0.228	2286.786	2003.638
20.848	0.246	2284.834	2001.932
21.863	0.451	2282.436	2002.327
22.877	0.291	2280.825	1998.535
23.892	0.239	2279.036	1996.047
24.907	0.288	2276.556	1994.288
25.921	0.266	2275.424	1992.760
26.936	0.367	2272.352	1991.172
27.950	0.264	2270.446	1987.891
28.965	0.307	2269.461	1987.362
29.980	0.262	2268.035	1985.289
30.994	0.569	2265.596	1986.972
32.009	7.443	2288.783	2098.691
33.023	26.312	2348.063	2407.945
34.038	39.858	2384.173	2627.402
35.053	44.001	2391.031	2690.069
36.067	43.727	2385.442	2679.805
37.082	42.397	2380.732	2656.516
38.096	42.396	2378.399	2653.579
39.111	43.229	2378.366	2664.285
40.126	43.554	2378.911	2668.893
41.140	44.889	2381.550	2689.260
42.155	44.648	2377.610	2681.298
43.169	44.040	2374.257	2669.155
44.184	44.469	2373.569	2673.737
45.199	44.781	2371.921	2675.674
46.213	44.228	2370.010	2665.901
47.228	43.915	2368.764	2660.054
48.242	44.230	2367.492	2662.457
49.257	44.008	2364.444	2655.787
50.271	44.380	2362.368	2658.037
51.286	44.314	2360.255	2654.465
52.301	43.428	2356.202	2637.973
53.315	41.950	2351.303	2612.787
54.330	37.573	2332.127	2534.031
55.344	32.994	2317.469	2458.071
56.359	32.461	2311.789	2444.800
57.374	31.945	2310.213	2436.102
58.388	31.491	2306.031	2425.486
59.403	32.100	2303.715	2430.689
60.417	33.107	2305.491	2445.377
61.432	33.502	2303.509	2448.112
62.447	32.699	2298.682	2432.272
63.461	32.211	2295.691	2422.501
64.476	31.734	2293.448	2413.666
65.490	32.973	2295.930	2432.042
66.505	35.962	2305.698	2480.878
67.520	39.902	2315.653	2542.392
68.534	40.244	2313.606	2544.269
69.549	40.543	2312.422	2546.516
70.563	41.329	2312.072	2555.972
71.578	41.895	2311.483	2562.300
72.593	42.455	2312.948	2570.823
73.607	43.222	2312.138	2579.489
74.622	42.844	2307.918	2569.619
75.636	41.581	2302.783	2547.412
76.651	41.958	2302.408	2551.522
77.666	42.276	2300.907	2553.622
78.680	42.199	2298.762	2549.948
79.695	42.762	2298.079	2556.079
80.709	43.275	2298.669	2562.980
81.724	43.359	2296.447	2561.269
82.739	43.384	2293.505	2558.001
83.753	43.032	2290.243	2549.577
84.768	42.239	2287.258	2535.877
85.782	41.420	2283.218	2520.696
86.797	41.459	2281.128	2518.579
87.812	40.835	2278.343	2507.289
88.826	40.340	2274.971	2497.008
89.841	40.932	2274.862	2504.089
90.855	41.936	2273.844	2515.363
91.870	40.739	2269.044	2494.650
92.884	40.295	2266.654	2486.118
93.899	41.261	2268.857	2500.435
94.914	40.156	2263.229	2480.016
95.928	35.825	2248.942	2409.689
96.943	33.626	2243.108	2375.501
97.957	37.232	2253.979	2432.246
98.972	40.591	2257.353	2477.859
99.987	40.194	2254.254	2469.174
101.001	40.431	2252.817	2470.276
102.016	40.727	2250.642	2471.299
103.030	40.677	2249.969	2469.643
104.045	41.238	2249.795	2476.170
105.060	42.410	2249.858	2490.569
106.074	42.504	2247.531	2488.878
107.089	41.278	2241.977	2467.172
108.103	41.305	2242.238	2467.501
109.118	42.071	2242.622	2477.166
110.133	42.291	2241.481	2478.340
111.147	42.163	2238.977	2473.686
112.162	42.018	2238.161	2470.684
113.176	42.194	2235.754	2469.919
114.191	42.179	2233.877	2467.362
115.206	42.088	2232.131	2464.016
116.220	42.256	2230.605	2464.110
117.235	41.921	2226.191	2454.809
118.249	41.551	2224.096	2447.644
119.264	42.395	2225.241	2459.010
120.279	42.776	2224.694	2462.797
121.293	42.305	2221.261	2452.921
122.308	41.928	2218.545	2444.993
123.322	41.375	2216.676	2435.854
124.337	40.597	2212.210	2421.110
125.352	37.802	2202.030	2375.493
126.366	37.394	2203.585	2371.891
127.381	40.339	2208.472	2412.993
128.395	41.665	2208.896	2429.397
129.410	42.159	2207.957	2434.103
130.424	42.451	2206.904	2436.220
131.439	42.335	2203.974	2431.280
132.454	41.646	2200.770	2419.065
133.468	41.785	2197.748	2417.145
134.483	41.524	2195.877	2411.635
135.497	41.218	2194.362	2405.960
136.512	42.123	2193.886	2416.134
137.527	42.222	2191.647	2414.573
138.541	41.323	2188.851	2400.325
139.556	40.593	2186.532	2388.674
140.570	40.432	2184.700	2384.436
141.585	40.718	2182.852	2385.585
142.600	40.973	2182.619	2388.123
143.614	40.932	2181.649	2386.282
144.629	41.675	2181.257	2394.531
145.643	41.391	2177.721	2386.944
146.658	40.844	2175.516	2377.662
147.673	40.865	2173.241	2375.139
148.687	41.604	2174.396	2384.994
149.702	41.764	2173.309	2385.443
150.716	41.568	2171.648	2380.982
151.731	41.836	2171.209	2383.430
152.746	42.083	2170.206	2384.998
153.760	39.616	2160.512	2344.611
154.775	34.566	2145.122	2267.509
155.789	32.463	2140.857	2237.624
156.804	35.987	2149.758	2288.856
157.819	39.630	2154.365	2336.992
158.833	40.842	2155.508	2352.384
159.848	41.932	2157.160	2366.876
160.862	42.609	2156.447	2373.854
161.877	42.754	2156.008	2374.813
162.892	43.360	2156.584	2382.352
163.906	43.679	2155.816	2384.996
164.921	43.619	2153.648	2381.598
165.935	43.378	2151.099	2375.653
166.950	42.600	2146.461	2361.058
167.964	41.495	2141.146	2341.903
168.979	41.337	2139.153	2337.577
169.994	41.690	2140.142	2342.538
171.008	42.080	2138.310	2344.854
172.023	41.833	2137.348	2340.610
173.037	42.213	2137.579	2345.047
174.052	42.680	2136.349	2348.908
175.067	43.082	2135.462	2352.372
176.081	42.932	2133.676	2348.355
177.096	42.167	2130.924	2336.088
178.110	41.654	2128.522	2327.176
179.125	41.735	2128.087	2327.368
180.140	42.840	2128.589	2340.566
181.154	42.982	2126.717	2339.885
182.169	42.283	2122.458	2326.768
183.183	40.627	2117.497	2301.761
184.198	36.365	2101.263	2234.391
185.213	34.499	2100.055	2211.123
186.227	39.404	2111.619	2280.325
187.242	41.819	2114.574	2311.343
188.256	42.015	2113.312	2311.965
189.271	42.741	2113.776	2320.621
190.286	43.352	2113.789	2327.448
191.300	42.408	2108.464	2310.384
192.315	41.469	2105.281	2295.767
193.329	42.143	2106.445	2304.558
194.344	43.132	2106.528	2315.797
195.359	43.201	2105.337	2315.004
196.373	43.217	2103.908	2313.337
197.388	43.221	2100.858	2309.763
198.402	42.391	2097.007	2295.706
199.417	41.872	2092.827	2284.903
200.432	42.127	2092.841	2287.567
201.446	42.639	2093.446	2293.832
202.461	42.328	2089.691	2285.882
203.475	41.513	2085.323	2271.512
204.490	41.078	2082.546	2263.240
205.504	41.503	2082.107	2267.349
206.519	41.253	2078.801	2260.623
207.534	41.291	2078.531	2260.491
208.548	41.920	2077.746	2266.541
209.563	40.612	2072.184	2245.329
210.577	39.962	2071.050	2236.439
211.592	41.809	2074.752	2261.198
212.607	40.007	2064.942	2229.818
213.621	33.332	2048.163	2136.040
214.636	32.834	2049.888	2131.930
215.650	37.909	2061.006	2201.002
216.665	40.606	2064.372	2234.925
217.680	41.841	2065.956	2250.358
218.694	42.472	2066.079	2257.356
219.709	41.917	2062.868	2247.304
220.723	42.188	2063.045	2250.294
221.738	43.101	2062.498	2259.726
222.753	42.898	2060.227	2254.680
223.767	42.550	2057.645	2247.665
224.782	41.838	2053.899	2235.313
225.796	41.515	2052.901	2230.328
226.811	42.709	2052.609	2243.143
227.826	42.826	2051.886	2243.401
228.840	42.940	2050.864	2243.286
229.855	42.635	2048.285	2236.790
230.869	41.559	2043.667	2219.461
231.884	40.584	2039.977	2204.302
232.899	40.794	2039.550	2205.924
233.913	41.673	2040.912	2216.947
234.928	42.401	2041.976	2225.952
235.942	42.964	2041.700	2231.666
236.957	43.265	2040.579	2233.521
237.972	43.175	2040.107	2231.736
238.986	43.338	2038.314	2231.313
240.001	42.880	2034.737	2222.047
241.015	42.130	2032.001	2210.483
242.030	41.468	2027.681	2198.185
243.045	37.671	2016.283	2143.653
244.059	35.886	2014.294	2121.528
245.074	40.092	2022.481	2176.550
246.088	41.880	2021.444	2194.924
247.103	41.834	2021.263	2193.960
248.117	42.032	2020.255	2194.785
249.132	42.353	2019.393	2197.116
250.147	42.208	2016.134	2191.720
251.161	41.699	2014.580	2184.173
252.176	41.729	2012.764	2182.274
253.190	41.812	2010.861	2180.862
254.205	41.993	2008.816	2180.367
255.220	42.449	2010.243	2186.647
256.234	42.582	2008.971	2186.450
257.249	42.035	2005.635	2176.590
258.263	41.970	2005.222	2175.164
259.278	42.375	2004.800	2178.867
260.293	42.504	2003.514	2178.616
261.307	42.249	2001.037	2172.887
262.322	42.321	1999.050	2171.253
263.336	41.384	1994.920	2156.331
264.351	40.623	1991.874	2144.509
265.366	40.999	1992.073	2148.554
266.380	41.524	1991.536	2153.415
267.395	40.833	1988.839	2142.754
268.409	40.690	1987.870	2139.899
269.424	41.442	1987.515	2147.412
270.439	41.837	1987.542	2151.456
271.453	40.293	1979.142	2125.462
272.468	35.607	1964.076	2058.702
273.482	33.807	1963.553	2038.506
274.497	37.543	1971.341	2086.724
275.512	40.317	1973.173	2118.292
276.526	40.924	1972.718	2124.076
277.541	40.856	1970.905	2121.134
278.555	40.968	1969.580	2120.658
279.570	40.598	1966.322	2112.938
280.585	39.971	1964.413	2103.922
281.599	40.474	1964.309	2108.945
282.614	41.259	1966.111	2119.020
283.628	42.356	1966.596	2131.007
284.643	42.790	1966.722	2135.520
285.657	42.927	1965.993	2135.939
286.672	42.930	1963.148	2132.626
287.687	42.558	1961.078	2126.163
288.701	42.079	1958.511	2118.037
289.716	41.909	1957.091	2114.442
290.730	42.173	1956.603	2116.464
291.745	42.591	1954.826	2118.717
292.760	41.911	1952.895	2109.170
293.774	41.595	1952.106	2104.715
294.789	42.297	1952.301	2112.106
295.803	42.686	1950.492	2114.015
296.818	42.364	1948.947	2108.681
297.833	42.295	1947.618	2106.267
298.847	42.919	1948.611	2113.670
299.862	43.130	1947.422	2114.356
300.876	42.516	1942.409	2102.207
301.891	38.167	1928.553	2041.399
302.906	34.824	1923.780	2000.992
303.920	39.443	1934.709	2060.856
304.935	42.362	1936.813	2093.526
305.949	42.573	1935.884	2094.480
306.964	43.083	1934.838	2098.439
307.979	42.627	1930.791	2089.038
308.993	40.928	1925.422	2065.254
310.008	40.811	1925.198	2063.551
311.022	41.916	1926.633	2076.381
312.037	42.748	1926.071	2084.198
313.052	42.522	1922.898	2078.165
314.066	41.642	1919.717	2065.332
315.081	41.612	1919.411	2064.443
316.095	41.753	1918.791	2064.991
317.110	41.751	1916.632	2062.406
318.125	41.748	1914.584	2059.921
319.139	41.526	1914.155	2056.911
320.154	42.412	1913.144	2064.745
321.168	42.609	1913.097	2066.489
322.183	43.238	1913.229	2072.877
323.197	42.834	1910.340	2065.338
324.212	42.193	1908.027	2055.979
325.227	41.595	1906.068	2047.461
326.241	41.275	1903.196	2040.835
327.256	41.280	1901.740	2039.084
328.270	41.197	1899.824	2035.935
329.285	41.429	1899.898	2038.148
330.300	40.401	1894.252	2021.314
331.314	35.110	1880.384	1952.240
332.329	33.812	1880.156	1938.461
333.343	38.614	1890.299	1998.070
334.358	41.883	1893.490	2034.700
335.373	42.430	1892.629	2039.120
336.387	42.513	1891.339	2038.335
337.402	42.416	1889.863	2035.517
338.416	42.126	1887.701	2029.984
339.431	42.009	1886.626	2027.394
340.446	43.226	1887.312	2040.279
341.460	43.629	1885.160	2041.797
342.475	43.407	1883.830	2037.861
343.489	42.392	1880.086	2023.289
344.504	41.934	1879.479	2017.752
345.519	42.342	1878.214	2020.282
346.533	42.581	1876.791	2020.927
347.548	42.499	1874.951	2017.872
348.562	42.330	1872.267	2013.037
349.577	42.271	1872.751	2012.721
350.592	42.674	1872.477	2016.248
351.606	42.819	1871.780	2016.720
352.621	42.816	1869.236	2013.710
353.635	42.806	1867.430	2011.419
354.650	42.302	1865.336	2003.859
355.665	42.032	1863.180	1998.600
356.679	42.129	1862.264	1998.346
357.694	42.097	1861.534	1997.006
358.708	42.432	1861.152	1999.710
359.723	41.353	1853.724	1980.729
360.738	35.587	1838.847	1907.255
361.752	34.073	1840.624	1893.739
362.767	39.448	1847.922	1954.830
363.781	42.117	1852.365	1985.945
364.796	43.396	1852.819	1998.925
365.810	42.473	1849.690	1986.144
366.825	41.763	1847.395	1976.385
367.840	42.030	1846.454	1977.792
368.854	41.378	1843.643	1968.075
369.869	41.144	1841.901	1963.662
370.883	41.180	1841.744	1963.615
371.898	41.459	1841.330	1965.708
372.913	42.229	1841.109	1972.852
373.927	42.053	1838.552	1968.141
374.942	41.894	1837.889	1965.625
375.956	41.995	1835.831	1964.184
376.971	41.367	1832.194	1953.873
377.986	41.166	1831.432	1950.849
379.000	42.063	1831.915	1959.963
380.015	42.431	1831.159	1962.535
381.029	42.297	1829.331	1959.023
382.044	42.485	1827.490	1958.660
383.059	42.265	1824.745	1953.334
384.073	41.051	1821.418	1937.663
385.088	40.640	1821.005	1932.969
386.102	41.275	1821.240	1939.203
387.117	42.041	1820.313	1945.463
388.132	42.037	1819.005	1943.794
389.146	40.440	1812.353	1920.909
390.161	35.129	1798.538	1854.521
391.175	33.924	1797.776	1841.780
392.190	38.334	1804.211	1891.146
393.205	40.208	1805.689	1910.683
394.219	40.753	1805.373	1915.406
395.234	40.602	1804.474	1912.753
396.248	40.968	1803.580	1915.125
397.263	40.940	1800.760	1911.636
398.278	40.622	1797.774	1905.169
399.292	40.389	1797.787	1902.697
400.307	42.138	1801.340	1923.128
401.321	42.778	1799.993	1927.626
402.336	42.120	1798.172	1919.112
403.350	41.986	1796.076	1915.362
404.365	42.949	1797.444	1925.851
405.380	43.935	1797.394	1935.039
406.394	43.551	1794.883	1928.423
407.409	42.791	1792.702	1918.568
408.423	42.431	1790.097	1912.104
409.438	42.030	1788.214	1906.028
410.453	42.197	1787.280	1906.395
411.467	42.309	1786.092	1905.973
412.482	42.276	1785.720	1905.036
413.496	42.726	1785.218	1908.568
414.511	42.767	1782.700	1906.032
415.526	42.507	1780.229	1900.690
416.540	42.895	1780.132	1904.047
417.555	42.726	1778.280	1900.236
418.569	41.725	1776.192	1888.276
419.584	42.364	1777.819	1895.854
420.599	42.578	1777.522	1897.336
421.613	41.779	1775.263	1887.124
422.628	41.326	1772.383	1879.539
423.642	42.870	1773.886	1895.545
424.657	43.691	1772.473	1901.569
425.672	41.876	1766.545	1877.865
426.686	42.098	1765.875	1879.029
427.701	42.524	1765.652	1882.584
428.715	42.348	1765.467	1880.501
429.730	43.205	1766.135	1889.055
430.745	45.072	1769.394	1909.906
431.759	46.059	1770.976	1920.666
432.774	45.496	1766.022	1909.785
433.788	40.261	1748.619	1841.945
434.803	32.401	1734.384	1753.461
435.818	29.982	1730.253	1726.433
436.832	29.544	1728.500	1720.379
437.847	28.780	1721.819	1706.394
438.861	19.456	1692.922	1591.530
439.876	4.781	1665.715	1430.996
440.890	0.744	1657.825	1386.868
441.905	0.505	1656.049	1383.020
442.920	0.431	1654.569	1380.935
443.934	0.415	1653.265	1379.531
444.949	0.277	1653.623	1378.398
445.963	0.327	1652.302	1377.591
446.978	0.227	1651.953	1376.218
447.993	0.398	1649.945	1375.952
449.007	0.273	1647.640	1372.712
450.022	0.437	1645.875	1372.578
451.036	0.306	1645.259	1370.706
452.051	1.400	1650.935	1385.301
453.066	14.187	1684.303	1532.129
454.080	31.732	1713.684	1722.409
455.095	34.236	1714.785	1746.431
456.109	33.122	1713.385	1734.524
457.124	33.732	1712.700	1739.244
458.139	33.048	1709.717	1729.715
459.153	32.504	1708.097	1722.866
460.168	32.635	1706.268	1722.024
461.182	33.691	1708.924	1734.209
462.197	35.580	1710.371	1752.813
463.212	36.251	1710.560	1758.950
464.226	36.871	1709.835	1763.665
465.241	36.824	1708.337	1761.482
466.255	36.706	1706.612	1758.413
467.270	36.175	1705.621	1752.336
468.285	36.936	1706.590	1760.072
469.299	38.050	1707.326	1770.785
470.314	37.916	1704.941	1766.877
471.328	37.782	1702.989	1763.425
472.343	37.921	1702.148	1763.606
473.358	37.960	1700.360	1761.901
474.372	37.749	1700.595	1760.017
475.387	38.701	1702.166	1770.081
476.401	39.359	1701.062	1774.689
477.416	38.774	1697.805	1765.783
478.430	38.026	1696.066	1756.991
479.445	38.580	1696.566	1762.311
480.460	39.220	1695.642	1766.926
481.474	39.155	1693.973	1764.389
482.489	38.506	1690.700	1754.927
483.503	37.401	1687.091	1741.024
484.518	36.923	1685.232	1734.603
485.533	37.430	1684.594	1738.296
486.547	37.558	1681.574	1736.116
487.562	35.827	1678.245	1716.964
488.576	36.032	1679.134	1719.506
489.591	37.095	1680.195	1729.920
490.606	37.873	1679.657	1736.131
491.620	37.983	1676.497	1733.633
492.635	36.803	1672.273	1718.542
493.649	35.259	1668.899	1701.111
494.664	35.632	1669.792	1705.147
495.679	37.545	1671.766	1724.020
496.693	37.749	1670.467	1724.285
497.708	37.215	1667.740	1716.521
498.722	35.992	1664.297	1701.912
499.737	35.906	1663.791	1700.433
500.752	36.970	1663.329	1709.194
501.766	37.222	1663.300	1711.189
502.781	37.109	1660.869	1707.488
503.795	37.553	1659.752	1710.053
504.810	37.538	1658.499	1708.427
505.825	36.270	1655.805	1694.264
506.839	35.571	1653.683	1685.731
507.854	35.782	1652.069	1685.741
508.868	35.883	1650.196	1684.517
509.883	35.452	1648.405	1678.701
510.898	34.519	1645.463	1667.307
511.912	33.393	1641.017	1652.734
512.927	32.544	1637.999	1642.061
513.941	32.438	1636.406	1639.341
514.956	32.783	1636.362	1642.116
515.971	33.317	1636.151	1646.379
516.985	33.027	1633.730	1641.215
518.000	32.593	1632.361	1635.854
519.014	32.220	1630.938	1630.977
520.029	32.135	1630.032	1629.140
521.043	32.261	1627.902	1627.915
522.058	32.438	1627.643	1628.996
523.073	32.863	1627.103	1631.957
524.087	32.765	1626.074	1629.882
525.102	33.360	1626.241	1635.021
526.116	34.888	1629.298	1651.166
527.131	36.193	1629.365	1662.357
528.146	35.306	1626.660	1651.721
529.160	34.966	1625.905	1647.817
530.175	35.678	1624.638	1652.489
531.189	35.229	1622.365	1646.105
532.204	34.870	1621.284	1641.709
533.219	35.327	1622.016	1646.200
534.233	36.474	1622.971	1656.871
535.248	36.225	1619.668	1651.153
536.262	34.562	1616.452	1633.387
537.277	34.843	1615.652	1634.800
538.292	35.623	1616.882	1642.553
539.306	36.101	1615.128	1644.675
540.321	35.472	1612.456	1636.370
541.335	34.972	1609.953	1629.354
542.350	35.274	1608.484	1630.253
543.365	35.431	1606.844	1629.738
544.379	35.331	1606.829	1628.675
545.394	35.107	1604.607	1624.317
546.408	35.198	1604.113	1624.400
547.423	36.483	1606.096	1637.163
548.438	37.783	1606.065	1647.999
549.452	36.938	1603.667	1638.165
550.467	35.930	1601.052	1626.739
551.481	35.620	1598.961	1621.796
552.496	35.198	1596.769	1615.801
553.511	34.280	1593.946	1604.976
554.525	34.490	1593.081	1605.690
555.540	34.139	1592.185	1601.632
556.554	34.302	1591.029	1601.649
557.569	34.332	1589.489	1600.164
558.583	34.181	1587.772	1596.970
559.598	34.386	1586.254	1596.980
560.613	34.280	1585.652	1595.293
561.627	33.956	1583.188	1589.898
562.642	33.516	1580.755	1583.565
563.656	32.717	1577.134	1573.054
564.671	32.050	1574.829	1564.978
565.686	31.812	1574.337	1562.308
566.700	31.721	1573.231	1560.262
567.715	31.807	1571.485	1559.059
568.729	31.988	1571.491	1560.396
569.744	32.480	1570.792	1563.626
570.759	32.798	1569.015	1564.319
571.773	32.440	1567.527	1559.665
572.788	32.119	1565.787	1555.073
573.802	31.892	1564.216	1551.444
574.817	31.899	1561.975	1549.096
575.832	31.634	1561.216	1545.958
576.846	32.641	1562.717	1555.619
577.861	33.691	1562.272	1563.695
578.875	33.714	1560.943	1562.364
579.890	33.189	1560.489	1557.382
580.905	33.465	1560.174	1559.161
581.919	33.439	1559.893	1558.479
582.934	33.407	1558.533	1556.669
583.948	33.340	1556.193	1553.597
584.963	33.185	1554.966	1550.904
585.978	33.927	1555.426	1557.297
586.992	33.790	1553.373	1553.926
588.007	33.260	1552.324	1548.332
589.021	33.408	1551.741	1548.780
590.036	33.139	1549.405	1544.053
591.051	33.099	1548.486	1542.629
592.065	33.234	1547.610	1542.672
593.080	33.398	1546.153	1542.386
594.094	33.635	1544.703	1542.686
595.109	34.252	1545.026	1547.867
596.123	35.866	1545.586	1561.421
597.138	35.806	1543.573	1558.710
598.153	34.208	1540.596	1542.515
599.167	33.848	1537.831	1536.635
600.182	33.609	1537.033	1533.712
601.196	33.548	1536.996	1532.999
602.211	34.103	1535.046	1535.374
603.226	33.284	1532.563	1526.069
604.240	33.509	1531.013	1526.163
605.255	33.614	1529.938	1525.763
606.269	33.217	1528.808	1521.241
607.284	33.082	1527.919	1519.087
608.299	32.932	1526.512	1516.294
609.313	32.976	1524.628	1514.594
610.328	32.774	1523.541	1511.707
611.342	32.610	1521.904	1508.580
612.357	32.471	1520.731	1506.118
613.372	32.317	1519.120	1503.106
614.386	32.223	1518.129	1501.191
615.401	32.089	1517.384	1499.200
616.415	32.056	1515.793	1497.186
617.430	31.701	1514.922	1493.305
618.445	31.386	1512.214	1487.933
619.459	31.439	1511.027	1487.015
620.474	31.542	1510.514	1487.152
621.488	32.047	1511.709	1492.186
622.503	32.912	1511.441	1498.648
623.518	32.458	1508.443	1491.883
624.532	31.431	1506.158	1481.271
625.547	31.252	1503.991	1477.540
626.561	31.082	1502.626	1474.670
627.576	31.095	1502.135	1474.115
628.591	31.497	1501.759	1476.759
629.605	32.169	1501.705	1481.860
630.620	32.460	1501.803	1484.083
631.634	33.229	1501.810	1490.004
632.649	33.266	1500.210	1488.528
633.663	32.833	1497.337	1482.085
634.678	31.866	1495.306	1472.267
635.693	31.330	1492.649	1465.255
636.707	31.217	1490.252	1461.839
637.722	31.223	1489.029	1460.510
638.736	31.387	1488.878	1461.475
639.751	31.810	1488.659	1464.406
640.766	31.940	1487.511	1464.120
641.780	31.756	1486.603	1461.614
642.795	31.915	1486.332	1462.414
643.809	32.320	1485.794	1464.880
644.824	32.364	1485.005	1464.273
645.839	32.594	1484.901	1465.792
646.853	32.696	1483.041	1464.579
647.868	32.811	1481.923	1464.199
648.882	32.902	1480.778	1463.602
649.897	32.725	1480.115	1461.388
650.912	32.741	1478.156	1459.411
651.926	32.741	1476.979	1458.070
652.941	32.825	1476.089	1457.673
653.955	32.685	1474.071	1454.413
654.970	32.266	1471.458	1448.423
655.985	31.871	1468.801	1442.575
656.999	31.359	1467.787	1437.451
658.014	31.463	1466.762	1437.079
659.028	31.818	1467.086	1439.966
660.043	32.487	1468.019	1445.878
661.058	32.739	1466.727	1446.375
662.072	32.655	1465.331	1444.176
663.087	32.740	1464.187	1443.534
664.101	32.782	1462.450	1441.966
665.116	32.638	1461.466	1439.719
666.131	32.369	1461.048	1437.072
667.145	32.444	1460.372	1436.811
668.160	32.427	1458.703	1434.867
669.174	32.031	1456.504	1429.502
670.189	32.029	1455.501	1428.329
671.204	32.342	1454.832	1429.896
672.218	32.400	1453.277	1428.634
673.233	32.132	1452.350	1425.513
674.247	32.013	1450.608	1422.721
675.262	31.802	1449.416	1419.778
676.276	31.680	1447.943	1417.237
677.291	31.830	1447.825	1418.090
678.306	32.356	1447.283	1421.388
679.320	32.245	1445.377	1418.504
680.335	31.640	1444.276	1412.670
681.349	31.500	1443.701	1410.877
682.364	31.618	1442.609	1410.533
683.379	31.438	1441.138	1407.566
684.393	31.364	1439.500	1405.239
685.408	31.311	1438.424	1403.614
686.422	31.278	1437.573	1402.364
687.437	31.203	1435.963	1400.067
688.452	30.962	1434.279	1396.443
689.466	30.937	1433.216	1395.050
690.481	30.880	1432.142	1393.410
691.495	31.289	1432.343	1396.515
692.510	32.219	1433.392	1404.354
693.525	33.257	1433.123	1411.717
694.539	32.803	1430.521	1405.582
695.554	31.573	1427.990	1393.725
696.568	30.943	1426.423	1387.322
697.583	30.721	1424.985	1384.097
698.598	30.947	1424.141	1384.796
699.612	30.997	1422.521	1383.431
700.627	31.100	1421.904	1383.429
701.641	31.355	1421.775	1385.044
702.656	31.555	1420.666	1385.287
703.671	31.515	1419.975	1384.149
704.685	31.595	1420.195	1384.793
705.700	31.650	1419.362	1384.218
706.714	31.723	1418.301	1383.565
707.729	32.008	1416.255	1383.511
708.744	32.106	1415.464	1383.301
709.758	31.909	1414.128	1380.370
710.773	31.389	1411.124	1373.438
711.787	31.073	1410.078	1369.921
712.802	31.703	1409.811	1374.147
713.816	32.096	1409.249	1376.329
714.831	32.011	1408.973	1375.272
715.846	31.990	1407.006	1373.031
716.860	31.789	1405.796	1370.210
717.875	31.857	1404.795	1369.567
718.889	31.797	1404.050	1368.232
719.904	31.715	1402.446	1365.911
720.919	31.701	1400.280	1363.534
721.933	31.574	1399.626	1361.805
722.948	31.470	1398.951	1360.224
723.962	31.341	1397.521	1357.730
724.977	31.347	1396.241	1356.366
725.992	31.397	1395.369	1355.718
727.006	31.397	1395.107	1355.306
728.021	31.462	1393.275	1353.838
729.035	31.376	1392.007	1351.814
730.050	31.393	1390.633	1350.446
731.065	31.412	1389.240	1349.068
732.079	31.123	1388.165	1345.766
733.094	31.149	1387.295	1344.952
734.108	31.434	1386.772	1346.343
735.123	31.261	1385.567	1343.765
736.138	31.127	1384.203	1341.311
737.152	31.217	1382.663	1340.310
738.167	30.937	1381.568	1337.064
739.181	31.088	1380.256	1336.728
740.196	31.059	1379.804	1335.919
741.211	31.003	1378.703	1334.289
742.225	30.893	1377.866	1332.530
743.240	30.853	1376.626	1330.885
744.254	30.902	1374.455	1328.979
745.269	30.629	1373.876	1326.302
746.284	30.608	1373.026	1325.174
747.298	30.592	1372.298	1324.193
748.313	30.950	1372.458	1326.751
749.327	31.516	1372.440	1330.627
750.342	32.377	1373.036	1337.199
751.356	33.096	1372.873	1342.011
752.371	32.969	1370.256	1338.389
753.386	31.699	1366.148	1325.191
754.400	30.852	1365.174	1318.064
755.415	31.008	1364.011	1317.891
756.429	31.129	1363.357	1317.965
757.444	31.245	1362.319	1317.629
758.459	31.256	1361.080	1316.349
759.473	31.209	1359.972	1314.789
760.488	31.029	1359.051	1312.466
761.502	30.875	1357.928	1310.133
762.517	31.225	1356.856	1311.413
763.532	31.483	1356.215	1312.457
764.546	31.442	1355.124	1310.957
765.561	31.055	1353.674	1306.674
766.575	30.483	1352.365	1301.228
767.590	30.538	1351.473	1300.601
768.605	31.069	1350.718	1303.451
769.619	31.383	1350.053	1304.856
770.634	31.500	1348.971	1304.475
771.648	31.161	1347.034	1300.068
772.663	30.829	1345.941	1296.539
773.678	30.953	1345.440	1296.769
774.692	31.104	1344.626	1296.881
775.707	30.916	1344.165	1294.966
776.721	30.809	1343.076	1293.018
777.736	30.843	1342.069	1292.130
778.751	30.712	1340.830	1289.867
779.765	30.846	1339.763	1289.619
780.780	30.696	1338.765	1287.464
781.794	30.787	1338.350	1287.541
782.809	30.628	1336.944	1284.931
783.824	30.446	1335.810	1282.424
784.838	30.601	1335.711	1283.250
785.853	31.677	1336.363	1291.190
786.867	31.867	1335.088	1291.117
787.882	31.018	1334.046	1284.079
788.897	30.952	1331.601	1281.120
789.911	30.553	1330.106	1276.774
790.926	30.415	1328.625	1274.243
791.940	30.290	1326.955	1271.628
792.955	30.339	1325.966	1270.869
793.969	30.306	1324.622	1269.199
794.984	30.266	1324.901	1269.043
795.999	30.549	1323.525	1269.517
797.013	30.615	1322.035	1268.385
798.028	30.466	1320.701	1265.932
799.042	30.541	1319.955	1265.580
800.057	30.445	1319.002	1263.857
801.072	30.588	1317.199	1262.954
802.086	30.685	1316.127	1262.436
803.101	30.412	1315.707	1260.021
804.115	30.521	1314.565	1259.523
805.130	30.772	1313.768	1260.314
806.145	30.539	1313.184	1258.016
807.159	30.650	1311.781	1257.278
808.174	30.881	1310.707	1257.667
809.188	31.050	1309.577	1257.578
810.203	30.867	1308.504	1255.154
811.218	30.832	1307.067	1253.389
812.232	30.625	1305.335	1250.181
813.247	30.471	1303.816	1247.537
814.261	30.606	1303.915	1248.397
815.276	30.863	1303.137	1249.231
816.291	30.678	1301.759	1246.520
817.305	30.512	1300.860	1244.392
818.320	30.428	1299.263	1242.146
819.334	30.364	1298.565	1240.905
820.349	30.538	1297.128	1240.551
821.364	30.388	1295.623	1237.956
822.378	30.476	1294.007	1236.853
823.393	30.255	1292.775	1234.051
824.407	30.228	1291.735	1232.731
825.422	30.258	1290.774	1231.866
826.437	30.110	1290.467	1230.436
827.451	30.179	1289.049	1229.398
828.466	30.707	1289.256	1232.966
829.480	31.507	1288.079	1237.009
830.495	31.337	1285.056	1232.835
831.509	30.455	1283.578	1225.421
832.524	30.214	1282.765	1222.906
833.539	30.220	1280.813	1220.933
834.553	30.231	1279.736	1219.838
835.568	30.212	1278.902	1218.771
836.582	30.222	1277.737	1217.575
837.597	30.363	1276.768	1217.441
838.612	30.354	1274.838	1215.391
839.626	30.278	1274.309	1214.243
840.641	30.576	1273.991	1215.754
841.655	30.512	1273.112	1214.352
842.670	30.229	1271.344	1210.661
843.685	30.027	1270.613	1208.494
844.699	30.162	1269.829	1208.490
845.714	30.437	1268.375	1208.764
846.728	30.313	1267.478	1206.948
847.743	30.149	1266.417	1204.724
848.758	30.251	1265.667	1204.536
849.772	30.150	1264.447	1202.566
850.787	30.140	1262.603	1200.605
851.801	29.863	1261.311	1197.432
852.816	29.882	1260.792	1196.924
853.831	30.187	1258.932	1196.991
854.845	30.105	1257.344	1194.809
855.860	30.036	1256.190	1193.123
856.874	30.141	1255.100	1192.621
857.889	30.592	1254.664	1194.980
858.904	30.962	1254.772	1197.330
859.918	31.558	1254.539	1200.809
860.933	31.909	1253.525	1201.958
861.947	31.481	1251.744	1197.349
862.962	30.812	1249.429	1190.697
863.977	30.626	1247.271	1187.300
864.991	30.310	1246.492	1184.389
866.006	29.933	1246.684	1182.012
867.020	29.974	1245.041	1180.579
868.035	29.926	1243.453	1178.624
869.049	29.999	1242.457	1178.002
870.064	30.093	1241.806	1177.848
871.079	30.020	1240.973	1176.447
872.093	29.972	1240.707	1175.753
873.108	29.924	1240.030	1174.660
874.122	30.057	1238.369	1173.795
875.137	30.063	1237.450	1172.824
876.152	30.136	1236.264	1172.022
877.166	30.035	1234.761	1169.815
878.181	29.763	1233.677	1166.920
879.195	29.825	1233.088	1166.616
880.210	30.017	1231.564	1166.253
881.225	29.851	1231.528	1165.029
882.239	29.947	1229.884	1163.943
883.254	29.989	1228.449	1162.707
884.268	29.941	1228.022	1161.861
885.283	29.945	1227.147	1160.921
886.298	30.016	1225.219	1159.402
887.312	29.883	1224.811	1158.044
888.327	29.810	1223.743	1156.436
889.341	30.027	1221.294	1155.345
890.356	29.846	1221.509	1154.273
891.371	29.825	1221.943	1154.414
892.385	29.866	1221.185	1153.817
893.400	30.111	1219.798	1153.899
894.414	30.143	1219.011	1153.220
895.429	30.560	1218.226	1154.941
896.444	31.511	1218.517	1161.017
897.458	32.596	1218.278	1167.412
898.473	31.846	1216.635	1161.033
899.487	30.861	1214.104	1152.354
900.502	30.257	1212.365	1146.816
901.517	29.996	1210.490	1143.288
902.531	29.936	1209.496	1141.840
903.546	29.774	1209.066	1140.291
904.560	29.811	1208.402	1139.760
905.575	29.821	1207.230	1138.578
906.589	29.659	1206.588	1136.832
907.604	29.729	1205.911	1136.492
