DTS Sentinel unit serial number:	SN409020Multiplexer serial number:	ORYXHardware model number:	OX4-SRSoftware version number:	ORYX F/W v3.00 Oryx Data Collector v3.7.2.0data status	okinstallation	HaddamTimeLapsedifferential loss correction	single-endedforward channel	channel 3reverse channel	N/Adate	2011/06/21time	14:51:17forward acquisition time	30.00reverse acquisition time	0.00gamma	498.7831k internal	0.1817k external	0.1817temperature offset calibration	1.0074default loss term (dB/km)	0.3790temperature slope calibration	1.3530multiplexer offset coefficient	1.0000multiplexer slope coefficient	1.0000fibre end	0.00T internal ref (°C)	38.25T ext. ref 1 (°C)	29.56T ext. ref 2 (°C)	0.25length (m)	temperature (°C)	Stokes	anti-Stokes-747.200	-68.428	-0.226	-0.112
-746.185	-200.000	-0.074	0.422
-745.171	228.094	-0.135	0.282
-744.156	-19.148	0.040	0.032
-743.142	-200.000	0.032	-0.325
-742.127	800.000	0.183	0.871
-741.112	-67.586	-0.457	-0.229
-740.098	-63.505	-0.200	0.105
-739.083	175.355	0.063	0.118
-738.069	161.846	-0.166	0.298
-737.054	588.867	-0.155	0.491
-736.039	449.105	-0.081	-0.230
-735.025	10.487	-0.245	-0.238
-734.010	-1.472	0.075	-0.067
-732.996	1.819	-0.278	0.257
-731.981	404.094	-0.104	0.281
-730.966	-18.985	0.227	0.181
-729.952	800.000	-0.057	0.215
-728.937	-200.000	-0.004	-0.139
-727.923	225.331	-0.062	0.129
-726.908	-152.353	-0.301	-0.027
-725.894	394.724	-0.220	-0.591
-724.879	-97.146	-0.369	-0.123
-723.864	265.557	-0.122	0.273
-722.850	12.240	-0.266	-0.262
-721.835	56.678	0.140	-0.175
-720.821	-200.000	-0.018	0.604
-719.806	193.272	-0.100	-0.195
-718.791	-108.508	-0.355	-0.097
-717.777	-106.804	-0.145	-0.041
-716.762	-137.803	0.287	-0.041
-715.748	-150.188	-0.391	0.038
-714.733	37.416	0.159	-0.181
-713.718	285.603	0.162	-0.376
-712.704	605.270	0.081	-0.261
-711.689	132.678	0.136	0.225
-710.675	-126.845	-0.131	0.025
-709.660	-200.000	0.086	0.503
-708.645	17.745	0.225	0.229
-707.631	-56.551	-0.348	-0.196
-706.616	-50.424	-0.304	0.183
-705.602	-68.068	0.232	0.115
-704.587	-200.000	0.100	0.598
-703.572	298.501	-0.166	0.393
-702.558	-200.000	0.039	0.540
-701.543	800.000	-0.040	-0.153
-700.529	192.352	0.190	-0.368
-699.514	-114.976	-0.352	-0.085
-698.499	-45.622	-0.551	-0.348
-697.485	58.989	0.197	-0.248
-696.470	21.845	0.278	0.289
-695.456	-164.409	-0.161	0.009
-694.441	-170.588	0.203	0.009
-693.426	500.392	0.213	-0.632
-692.412	800.000	0.034	-0.180
-691.397	800.000	0.037	-0.147
-690.383	14.743	-0.076	-0.075
-689.368	135.361	-0.275	-0.458
-688.354	418.729	-0.009	0.024
-687.339	178.862	-0.275	-0.515
-686.324	10.844	-0.183	0.179
-685.310	242.977	0.214	0.460
-684.295	-117.373	0.715	-0.164
-683.281	85.846	0.129	-0.181
-682.266	107.571	-0.154	-0.234
-681.251	800.000	0.033	-0.136
-680.237	800.000	-0.122	0.490
-679.222	166.862	-0.174	0.316
-678.208	100.208	0.141	-0.209
-677.193	-60.831	-0.047	-0.026
-676.178	-200.000	0.042	-0.237
-675.164	-200.000	-0.038	0.353
-674.149	800.000	0.040	-0.157
-673.135	-185.337	0.496	0.010
-672.120	117.051	-0.039	-0.061
-671.105	119.945	0.122	-0.193
-670.091	-70.269	-0.156	-0.075
-669.076	-33.657	0.203	-0.142
-668.062	-200.000	0.012	-0.138
-667.047	800.000	-0.100	0.492
-666.032	-181.299	-0.146	0.004
-665.018	800.000	0.032	-0.127
-664.003	-200.000	0.061	-0.763
-662.989	-146.137	0.142	0.016
-661.974	-147.576	0.298	-0.032
-660.959	128.766	-0.090	-0.147
-659.945	-97.544	-0.356	-0.117
-658.930	215.462	-0.066	0.134
-657.916	-133.351	0.304	-0.048
-656.901	693.533	-0.046	-0.154
-655.886	21.812	0.287	-0.299
-654.872	-116.691	0.122	-0.028
-653.857	-106.650	0.351	0.099
-652.843	-21.991	-0.496	-0.384
-651.828	800.000	0.100	-0.465
-650.814	-200.000	0.012	-0.078
-649.799	311.702	0.066	0.158
-648.784	557.912	0.105	-0.326
-647.770	-169.296	-0.438	-0.020
-646.755	143.221	0.250	-0.425
-645.741	-200.000	-0.039	-0.229
-644.726	234.219	-0.249	-0.525
-643.711	-200.000	-0.033	-0.189
-642.697	124.537	-0.146	-0.235
-641.682	-57.065	-0.140	0.079
-640.668	599.578	0.050	0.158
-639.653	-89.075	-0.329	-0.124
-638.638	-200.000	-0.034	-0.285
-637.624	95.535	-0.034	-0.050
-636.609	6.713	0.176	0.167
-635.595	-66.855	-0.154	0.078
-634.580	-101.662	-0.302	-0.093
-633.565	-33.460	0.120	-0.084
-632.551	-200.000	0.067	-0.408
-631.536	13.119	-0.313	-0.309
-630.522	-70.721	0.653	-0.313
-629.507	-91.228	0.174	0.063
-628.492	-84.048	0.056	-0.022
-627.478	800.000	-0.078	0.341
-626.463	165.820	-0.244	0.441
-625.449	-0.455	-0.175	-0.158
-624.434	134.828	-0.148	0.246
-623.419	314.470	0.229	-0.551
-622.405	-200.000	0.003	-0.430
-621.390	-116.364	-0.054	0.013
-620.376	-65.372	-0.290	-0.148
-619.361	321.303	0.121	0.295
-618.346	-63.154	-0.642	-0.336
-617.332	800.000	-0.060	-0.305
-616.317	-13.357	-0.312	0.258
-615.303	-200.000	0.401	-0.002
-614.288	122.688	0.258	0.413
-613.273	-160.429	0.240	-0.016
-612.259	-91.179	-0.186	-0.068
-611.244	800.000	0.012	-0.059
-610.230	-90.385	0.373	0.137
-609.215	57.720	-0.160	0.200
-608.201	-130.098	-0.476	0.082
-607.186	0.603	-0.331	-0.301
-606.171	-49.398	0.100	0.060
-605.157	-200.000	0.003	0.186
-604.142	10.230	0.044	-0.042
-603.128	251.509	0.228	-0.497
-602.113	27.701	-0.327	-0.350
-601.098	-53.111	-0.298	0.174
-600.084	248.653	-0.140	0.303
-599.069	-142.554	0.444	0.055
-598.055	28.829	0.190	0.205
-597.040	-200.000	-0.030	0.187
-596.025	-200.000	-0.279	-0.001
-595.011	88.010	0.148	-0.209
-593.996	-96.512	-0.118	0.040
-592.982	476.835	-0.085	-0.245
-591.967	538.614	0.050	0.152
-590.952	-185.137	-0.431	0.008
-589.938	249.606	0.102	0.222
-588.923	-8.535	0.053	0.046
-587.909	117.057	-0.486	0.761
-586.894	-48.420	-0.258	0.158
-585.879	-157.924	0.402	-0.030
-584.865	258.643	0.156	0.343
-583.850	-200.000	-0.051	-0.629
-582.836	-179.001	0.176	-0.005
-581.821	-3.544	0.131	-0.116
-580.806	-94.250	-0.125	0.043
-579.792	-200.000	-0.044	-0.490
-578.777	-16.465	0.439	-0.354
-577.763	23.183	-0.076	0.079
-576.748	-96.737	0.071	-0.024
-575.733	-200.000	-0.032	0.235
-574.719	-26.507	-0.368	0.274
-573.704	-101.552	-0.605	-0.186
-572.690	-92.265	-0.875	-0.312
-571.675	-164.910	-0.329	0.018
-570.661	-75.172	-0.275	-0.124
-569.646	-5.166	0.263	0.230
-568.631	108.654	0.251	-0.381
-567.617	800.000	-0.107	0.440
-566.602	-200.000	0.006	-0.209
-565.588	-123.838	0.507	0.101
-564.573	58.762	-0.328	-0.410
-563.558	-200.000	0.020	-0.122
-562.544	80.517	0.054	-0.074
-561.529	243.576	-0.128	0.274
-560.515	-200.000	-0.006	0.398
-559.500	-78.495	-0.294	0.127
-558.485	-200.000	0.045	0.251
-557.471	-125.809	-0.228	0.043
-556.456	-64.758	0.153	-0.078
-555.442	133.373	-0.196	0.323
-554.427	-75.241	0.164	-0.074
-553.412	298.029	0.160	-0.375
-552.398	800.000	0.115	0.503
-551.383	-95.419	-0.298	0.101
-550.369	-132.578	-0.439	-0.071
-549.354	-59.023	-0.231	-0.126
-548.339	-19.013	-0.393	-0.310
-547.325	-200.000	0.003	0.063
-546.310	-200.000	0.046	-0.272
-545.296	800.000	-0.037	0.146
-544.281	-200.000	0.001	-0.061
-543.266	800.000	0.116	0.470
-542.252	-200.000	-0.030	0.544
-541.237	-81.041	-0.626	-0.262
-540.223	-131.601	-0.546	0.090
-539.208	-42.896	-0.345	-0.222
-538.193	-5.139	-0.202	-0.176
-537.179	184.629	0.158	0.299
-536.164	-77.765	-0.476	0.208
-535.150	214.241	0.158	0.318
-534.135	16.948	0.107	0.108
-533.121	-10.843	-0.318	-0.267
-532.106	-200.000	0.014	-0.266
-531.091	31.473	0.187	0.204
-530.077	379.189	0.133	0.348
-529.062	800.000	0.120	0.540
-528.048	99.137	-0.087	-0.127
-527.033	105.748	-0.155	-0.234
-526.018	-200.000	-0.015	0.150
-525.004	-90.749	-0.200	0.073
-523.989	-110.511	-0.127	0.033
-522.975	800.000	-0.038	-0.167
-521.960	240.053	-0.155	0.329
-520.945	-150.432	0.202	-0.019
-519.931	28.506	0.125	0.134
-518.916	220.592	-0.073	0.149
-517.902	-200.000	0.021	0.146
-516.887	800.000	0.015	0.080
-515.872	800.000	0.073	-0.350
-514.858	72.334	-0.337	-0.447
-513.843	-200.000	-0.014	0.184
-512.829	-109.715	-0.383	-0.101
-511.814	-128.086	0.567	-0.102
-510.799	607.183	0.104	-0.331
-509.785	-99.111	-0.196	-0.063
-508.770	-108.163	-0.283	-0.077
-507.756	-200.000	-0.154	0.000
-506.741	71.733	-0.127	-0.167
-505.726	-112.442	-0.298	0.075
-504.712	4.607	0.361	0.336
-503.697	-158.591	0.135	0.010
-502.683	800.000	0.105	-0.476
-501.668	-176.325	-0.207	0.007
-500.653	-200.000	-0.052	-0.321
-499.639	-58.696	0.382	-0.209
-498.624	59.563	-0.231	0.290
-497.610	-19.208	-0.279	0.220
-496.595	-200.000	0.048	0.281
-495.581	-47.652	-0.299	-0.183
-494.566	92.245	-0.178	-0.254
-493.551	695.117	-0.060	-0.201
-492.537	-20.666	0.474	0.368
-491.522	353.124	0.028	-0.071
-490.508	800.000	-0.025	-0.103
-489.493	22.195	0.304	0.315
-488.478	-94.886	0.454	-0.155
-487.464	-200.000	-0.034	-0.345
-486.449	800.000	-0.058	-0.236
-485.435	-181.735	0.523	0.013
-484.420	-72.292	-0.093	0.043
-483.405	597.887	-0.116	0.368
-482.391	-123.067	0.673	0.136
-481.376	-200.000	-0.014	0.123
-480.362	79.385	0.082	0.111
-479.347	92.205	0.077	-0.110
-478.332	230.897	-0.146	-0.305
-477.318	-55.691	-0.082	-0.046
-476.303	-89.845	0.302	-0.111
-475.289	-119.073	0.044	-0.010
-474.274	-18.134	0.332	0.263
-473.259	-88.025	0.223	-0.084
-472.245	-11.035	-0.206	0.172
-471.230	-130.253	-0.479	-0.082
-470.216	-200.000	-0.035	-0.320
-469.201	-200.000	-0.009	-0.423
-468.186	-102.831	-0.216	-0.065
-467.172	-84.249	-0.186	0.074
-466.157	-48.343	-0.297	0.181
-465.143	-200.000	-0.003	-0.327
-464.128	178.615	0.305	0.566
-463.113	-136.263	-0.124	0.018
-462.099	120.140	0.275	-0.433
-461.084	185.393	0.224	0.423
-460.070	331.343	0.185	0.454
-459.055	15.672	0.414	0.412
-458.040	-25.116	-0.135	-0.101
-457.026	800.000	0.124	-0.660
-456.011	-200.000	0.068	-0.419
-454.997	-66.603	0.611	0.305
-453.982	-177.985	0.629	0.019
-452.968	48.934	0.374	-0.444
-451.953	-140.880	0.778	-0.100
-450.938	800.000	0.039	0.161
-449.924	259.200	0.199	-0.435
-448.909	-67.118	0.379	-0.188
-447.895	440.372	0.200	-0.555
-446.880	-76.463	-0.289	0.128
-445.865	131.676	-0.098	0.160
-444.851	131.922	0.062	-0.102
-443.836	0.881	-0.385	-0.349
-442.822	296.888	-0.210	-0.490
-441.807	363.451	-0.169	-0.432
-440.792	234.907	-0.173	-0.362
-439.778	-61.616	-0.426	-0.225
-438.763	-200.000	0.006	-0.121
-437.749	93.808	-0.147	-0.211
-436.734	-140.845	0.210	-0.027
-435.719	208.470	0.246	-0.488
-434.705	-200.000	0.034	-0.486
-433.690	-19.961	-0.181	0.141
-432.676	800.000	-0.048	0.195
-431.661	-128.562	0.195	0.035
-430.646	173.776	-0.265	0.485
-429.632	357.405	0.107	0.271
-428.617	-112.604	-0.393	0.098
-427.603	-50.600	-0.168	-0.100
-426.588	-200.000	-0.032	0.507
-425.573	-5.917	0.349	0.302
-424.559	-0.190	-0.273	0.246
-423.544	-32.308	-0.164	0.116
-422.530	181.183	-0.169	-0.315
-421.515	-79.288	-0.300	-0.128
-420.500	98.055	-0.014	-0.020
-419.486	-37.843	0.203	0.136
-418.471	-122.590	-0.554	-0.113
-417.457	-19.761	-0.138	0.107
-416.442	-139.362	0.381	0.051
-415.428	800.000	0.079	-0.309
-414.413	-6.941	0.558	0.478
-413.398	-4.175	0.428	0.374
-412.384	-117.287	-0.194	0.044
-411.369	-100.099	0.327	0.102
-410.355	475.450	0.098	0.280
-409.340	11.707	-0.193	-0.187
-408.325	-200.000	-0.025	-0.478
-407.311	51.913	0.228	0.274
-406.296	-46.423	0.170	0.105
-405.282	-160.719	-0.129	-0.009
-404.267	133.587	0.025	-0.041
-403.252	-177.567	0.115	0.003
-402.238	549.704	-0.054	-0.163
-401.223	241.277	0.221	0.467
-400.209	65.087	-0.078	0.100
-399.194	-87.416	-0.096	-0.037
-398.179	-32.810	-0.368	0.258
-397.165	-200.000	0.001	0.192
-396.150	-136.808	0.379	-0.055
-395.136	-16.753	-0.335	-0.268
-394.121	347.821	-0.052	0.130
-393.106	-58.018	0.257	0.141
-392.092	545.785	-0.101	-0.308
-391.077	791.309	-0.099	0.346
-390.063	-7.796	-0.214	0.183
-389.048	51.206	0.053	-0.063
-388.033	-125.390	0.207	-0.040
-387.019	-105.116	0.129	0.037
-386.004	-11.787	0.114	0.094
-384.990	6.767	0.288	0.270
-383.975	-87.498	-0.463	-0.176
-382.960	-45.101	-0.287	-0.180
-381.946	225.020	-0.176	0.361
-380.931	-82.957	-0.484	-0.196
-379.917	89.763	0.249	-0.352
-378.902	-200.000	-0.018	-0.211
-377.888	79.600	-0.271	-0.368
-376.873	-108.311	-0.235	0.064
-375.858	-93.862	0.537	0.186
-374.844	-67.734	0.311	-0.153
-373.829	-200.000	0.051	0.320
-372.815	113.645	0.172	0.264
-371.800	73.477	-0.164	-0.216
-370.785	41.884	-0.249	-0.285
-369.771	32.880	-0.062	0.068
-368.756	589.670	0.123	-0.386
-367.742	199.934	-0.082	0.160
-366.727	-66.647	0.184	0.091
-365.712	-125.557	0.392	0.074
-364.698	-166.018	0.152	-0.008
-363.683	119.419	-0.352	-0.551
-362.669	800.000	-0.090	-0.348
-361.654	-11.581	0.414	-0.343
-360.639	800.000	-0.045	-0.190
-359.625	327.579	-0.058	0.140
-358.610	-121.974	0.221	-0.045
-357.596	-115.494	0.342	0.081
-356.581	-157.025	-0.492	-0.037
-355.566	-200.000	0.036	-0.364
-354.552	-12.626	-0.115	-0.095
-353.537	-114.308	-0.179	-0.043
-352.523	-116.218	0.362	0.084
-351.508	-13.210	-0.301	-0.246
-350.493	-200.000	-0.031	-0.308
-349.479	-200.000	0.014	0.374
-348.464	-137.842	0.101	-0.014
-347.450	309.297	-0.074	0.175
-346.435	-100.655	0.248	0.077
-345.420	356.281	0.115	-0.290
-344.406	-200.000	0.022	-0.174
-343.391	-30.723	-0.266	-0.189
-342.377	515.824	0.113	-0.333
-341.362	-105.869	-0.146	0.041
-340.348	370.547	-0.182	-0.467
-339.333	-149.456	0.587	-0.058
-338.318	-94.595	0.230	0.079
-337.304	800.000	-0.102	0.392
-336.289	8.775	-0.217	-0.206
-335.275	725.046	0.027	0.091
-334.260	-78.098	0.260	-0.112
-333.245	288.308	-0.152	-0.349
-332.231	-140.598	0.194	-0.025
-331.216	6.710	-0.265	-0.248
-330.202	37.969	-0.226	0.253
-329.187	800.000	0.043	0.150
-328.172	-104.302	-0.028	-0.008
-327.158	83.129	0.080	0.110
-326.143	800.000	0.132	-0.511
-325.129	35.397	-0.308	0.340
-324.114	763.713	0.099	0.342
-323.099	353.199	-0.048	0.120
-322.085	800.000	-0.024	0.118
-321.070	146.526	-0.171	0.291
-320.056	-97.410	0.530	0.173
-319.041	-72.448	-0.127	0.059
-318.026	-135.441	-0.323	-0.048
-317.012	-167.149	-0.203	-0.010
-315.997	227.598	0.198	0.407
-314.983	-138.076	0.286	0.040
-313.968	-200.000	0.016	0.435
-312.953	800.000	-0.060	0.264
-311.939	-165.073	-0.368	-0.020
-310.924	800.000	0.016	-0.062
-309.910	241.546	-0.043	-0.090
-308.895	-25.563	0.197	-0.146
-307.880	-104.885	-0.468	0.134
-306.866	-200.000	-0.080	-0.691
-305.851	101.061	-0.156	0.229
-304.837	-200.000	0.006	-0.212
-303.822	-23.060	-0.245	0.185
-302.807	665.586	-0.078	0.255
-301.793	-200.000	-0.023	-0.442
-300.778	-41.863	-0.321	-0.207
-299.764	-39.081	-0.184	-0.121
-298.749	-200.000	0.003	0.119
-297.735	-68.045	-0.178	0.087
-296.720	-50.424	-0.200	0.118
-295.705	800.000	0.100	0.465
-294.691	76.211	0.342	0.456
-293.676	285.268	0.044	-0.099
-292.662	-111.456	0.958	-0.244
-291.647	-175.448	0.503	0.017
-290.632	553.463	0.050	-0.153
-289.618	184.567	-0.233	0.435
-288.603	-126.070	0.202	-0.038
-287.589	-61.836	-0.119	0.062
-286.574	800.000	0.084	-0.301
-285.559	8.288	0.343	-0.324
-284.545	-200.000	-0.032	0.448
-283.530	153.389	0.187	0.323
-282.516	-85.110	-0.036	0.014
-281.501	97.108	0.095	0.138
-280.486	-200.000	0.003	-0.098
-279.472	-200.000	0.002	0.148
-278.457	121.240	0.098	0.154
-277.443	-65.602	-0.254	0.127
-276.428	687.477	-0.094	-0.311
-275.413	-71.460	0.436	-0.204
-274.399	200.943	0.109	0.211
-273.384	196.105	-0.173	0.333
-272.370	-6.306	0.141	-0.120
-271.355	-5.205	0.258	0.223
-270.340	-195.175	0.286	-0.003
-269.326	-32.871	0.356	0.248
-268.311	800.000	-0.105	0.483
-267.297	800.000	-0.053	-0.239
-266.282	-200.000	-0.046	0.305
-265.267	564.035	-0.122	-0.374
-264.253	-129.400	-0.403	0.070
-263.238	-200.000	0.015	0.162
-262.224	126.264	0.224	0.356
-261.209	-77.848	-0.090	-0.039
-260.195	33.189	-0.100	-0.109
-259.180	-55.200	0.133	0.075
-258.165	122.323	-0.147	-0.231
-257.151	-127.160	-0.215	-0.039
-256.136	62.137	-0.315	0.395
-255.122	38.870	-0.073	-0.082
-254.107	-200.000	0.050	-0.583
-253.092	-57.868	-0.135	0.074
-252.078	800.000	-0.103	-0.447
-251.063	800.000	-0.036	0.190
-250.049	765.356	0.057	0.195
-249.034	-86.392	0.605	0.232
-248.019	-113.665	-0.380	-0.092
-247.005	800.000	-0.093	0.340
-245.990	684.519	-0.086	0.285
-244.976	-54.027	-0.166	0.095
-243.961	-19.019	0.216	0.168
-242.946	-91.345	-0.209	-0.075
-241.932	-19.132	0.357	-0.278
-240.917	-200.000	0.035	-0.230
-239.903	-200.000	-0.035	0.205
-238.888	158.871	-0.133	0.232
-237.873	-53.515	-0.278	-0.159
-236.859	-200.000	0.490	-0.002
-235.844	-72.851	0.243	0.112
-234.830	-200.000	-0.025	0.246
-233.815	412.474	-0.057	0.152
-232.800	-127.542	0.273	0.049
-231.786	800.000	-0.011	0.056
-230.771	124.720	0.156	0.248
-229.757	-76.717	0.210	0.092
-228.742	-32.047	0.430	0.302
-227.727	10.188	0.143	0.137
-226.713	-116.923	-0.328	-0.075
-225.698	-61.906	0.343	0.179
-224.684	-90.100	-0.303	0.110
-223.669	800.000	0.077	0.301
-222.655	-10.940	-0.262	-0.217
-221.640	-151.471	0.328	-0.030
-220.625	-8.650	0.338	0.284
-219.611	800.000	0.065	0.309
-218.596	-133.382	0.384	0.060
-217.582	-44.376	0.445	-0.279
-216.567	-200.000	0.064	-0.535
-215.552	1.537	-0.270	0.243
-214.538	-180.932	0.379	0.009
-213.523	29.283	0.267	-0.285
-212.509	-4.916	0.122	-0.105
-211.494	-200.000	0.039	0.268
-210.479	4.889	0.490	0.452
-209.465	-101.558	-0.323	-0.098
-208.450	-78.849	-0.163	-0.069
-207.436	-37.455	0.071	0.047
-206.421	14.985	0.100	-0.098
-205.406	-49.307	0.353	0.210
-204.392	800.000	0.023	-0.091
-203.377	-104.585	0.189	-0.054
-202.363	-90.325	0.293	0.106
-201.348	-200.000	0.028	0.219
-200.333	-92.308	-0.224	-0.079
-199.319	87.659	-0.020	0.028
-198.304	177.609	-0.168	0.307
-197.290	735.045	0.089	-0.300
-196.275	103.067	-0.073	0.108
-195.260	-97.440	0.388	-0.126
-194.246	-3.510	0.200	-0.174
-193.231	393.788	-0.155	-0.407
-192.217	-200.000	-0.020	0.170
-191.202	-33.236	-0.404	0.280
-190.187	16.368	-0.171	-0.169
-189.173	111.238	0.062	-0.094
-188.158	60.161	-0.194	0.240
-187.144	61.336	-0.137	0.171
-186.129	526.642	-0.238	-0.705
-185.114	14.921	0.226	0.221
-184.100	-7.214	0.222	0.188
-183.085	-79.198	-0.162	-0.069
-182.071	-1.442	0.276	0.244
-181.056	-102.662	0.408	-0.121
-180.042	45.521	0.057	-0.066
-179.027	244.356	-0.118	0.248
-178.012	800.000	-0.065	-0.335
-176.998	54.968	0.154	0.186
-175.983	-99.115	0.094	0.029
-174.969	-54.624	0.165	0.093
-173.954	-22.335	-0.165	-0.125
-172.939	40.616	0.152	0.171
-171.925	800.000	0.064	0.223
-170.910	-200.000	-0.019	0.220
-169.896	-200.000	-0.068	-0.399
-168.881	800.000	0.086	-0.366
-167.866	309.089	0.106	-0.250
-166.852	608.660	-0.134	-0.421
-165.837	22.691	0.183	0.188
-164.823	-157.804	0.688	-0.050
-163.808	-17.251	-0.277	-0.219
-162.793	-95.604	-0.265	-0.088
-161.779	-79.843	-0.473	0.198
-160.764	-76.374	-0.218	0.096
-159.750	61.452	-0.216	0.268
-158.735	74.017	0.274	0.360
-157.720	139.413	-0.110	0.182
-156.706	-200.000	0.061	0.411
-155.691	-147.710	-0.381	0.040
-154.677	-69.797	-0.033	-0.015
-153.662	522.913	0.110	0.325
-152.647	249.146	-0.059	-0.125
-151.633	-200.000	0.010	-0.165
-150.618	-200.000	0.002	0.239
-149.604	16.728	0.176	-0.174
-148.589	800.000	0.119	0.427
-147.574	727.078	0.034	-0.116
-146.560	-135.263	0.411	-0.061
-145.545	-200.000	-0.022	-0.424
-144.531	-123.323	-0.389	-0.077
-143.516	12.799	0.248	0.240
-142.502	7.049	0.255	0.238
-141.487	-200.000	0.022	-0.604
-140.472	-102.883	0.236	0.070
-139.458	-62.039	0.414	-0.215
-138.443	-73.792	-0.055	-0.025
-137.429	-33.451	0.669	-0.461
-136.414	-40.690	-0.307	-0.199
-135.399	-57.136	-0.197	-0.108
-134.385	-81.660	-0.094	0.038
-133.370	-200.000	-0.034	0.200
-132.356	-188.127	0.483	0.008
-131.341	-143.279	0.637	0.076
-130.326	70.987	-0.261	0.338
-129.312	-200.000	0.034	0.240
-128.297	-103.635	0.360	0.105
-127.283	126.102	-0.151	0.239
-126.268	-80.168	-0.272	0.113
-125.253	14.685	-0.255	0.249
-124.239	186.645	-0.247	0.460
-123.224	-200.000	-0.013	0.211
-122.210	278.443	0.213	0.475
-121.195	126.468	0.214	0.339
-120.180	492.295	0.155	-0.446
-119.166	-200.000	-0.023	-0.569
-118.151	-122.061	0.332	-0.068
-117.137	-200.000	0.032	0.535
-116.122	-83.031	-0.060	-0.024
-115.107	-104.978	0.348	0.099
-114.093	-48.925	0.421	-0.251
-113.078	-200.000	0.017	0.399
-112.064	-36.840	-0.416	0.278
-111.049	-16.081	-0.314	0.249
-110.034	-174.856	0.353	0.012
-109.020	-132.140	0.212	0.034
-108.005	371.657	0.129	-0.329
-106.991	-134.507	-0.016	0.002
-105.976	-16.986	0.385	-0.303
-104.962	-99.707	0.547	-0.170
-103.947	-48.589	-0.645	-0.386
-102.932	705.956	-0.067	-0.222
-101.918	-77.390	-0.129	-0.056
-100.903	363.766	0.179	-0.452
-99.889	-141.048	0.546	0.069
-98.874	514.066	-0.121	-0.355
-97.859	32.050	-0.097	0.105
-96.845	-71.750	-0.499	-0.232
-95.830	187.184	-0.174	0.325
-94.816	-9.792	0.088	-0.073
-93.801	-200.000	-0.008	-0.104
-92.786	-22.751	0.219	-0.165
-91.772	-48.246	0.754	-0.453
-90.757	-10.120	0.283	0.234
-89.743	800.000	0.137	0.484
-88.728	3.372	0.266	0.242
-87.713	-82.550	0.228	-0.092
-86.699	-82.706	-0.568	-0.228
-85.684	-33.964	0.427	-0.293
-84.670	504.057	0.081	0.236
-83.655	-49.687	0.180	-0.106
-82.640	85.112	0.304	0.416
-81.626	14.408	0.233	-0.227
-80.611	-40.840	0.308	0.199
-79.597	334.936	0.082	-0.199
-78.582	-200.000	-0.016	-0.349
-77.567	-156.490	-0.303	-0.023
-76.553	-79.216	-0.178	0.075
-75.538	800.000	-0.036	0.195
-74.524	166.537	0.175	-0.311
-73.509	800.000	0.078	-0.413
-72.494	52.734	0.233	-0.278
-71.480	-92.673	0.352	-0.122
-70.465	101.939	-0.067	-0.097
-69.451	-89.302	-0.412	0.151
-68.436	-71.274	-0.309	0.144
-67.422	800.000	0.072	-0.291
-66.407	190.307	-0.168	0.316
-65.392	-98.602	-0.102	-0.032
-64.378	246.132	0.123	0.260
-63.363	-120.995	0.253	0.053
-62.349	45.620	0.140	0.162
-61.334	-41.276	-0.800	-0.513
-60.319	800.000	0.227	0.860
-59.305	381.245	-2.250	-5.784
-58.290	2.221	2.556	2.301
-57.276	358.439	3.908	9.772
-56.261	-200.000	12.559	193.215
-55.246	495.438	1117.977	3218.076
-54.232	66.708	2769.023	3515.058
-53.217	71.755	2709.465	3513.979
-52.203	60.926	2438.993	3018.218
-51.188	46.340	2081.990	2406.575
-50.173	41.327	1944.888	2192.752
-49.159	39.228	1934.899	2158.274
-48.144	38.682	1931.186	2148.037
-47.130	38.712	1928.312	2145.083
-46.115	38.617	1926.711	2142.178
-45.100	38.659	1925.481	2141.180
-44.086	38.513	1924.363	2138.256
-43.071	38.523	1922.546	2136.252
-42.057	38.672	1920.541	2135.572
-41.042	38.481	1919.664	2132.428
-40.027	38.612	1918.476	2132.460
-39.013	38.506	1916.573	2129.099
-37.998	38.551	1915.324	2128.119
-36.984	38.437	1914.243	2125.581
-35.969	38.406	1913.390	2124.211
-34.954	38.355	1911.807	2121.813
-33.940	38.384	1911.187	2121.359
-32.925	38.368	1909.492	2119.225
-31.911	38.261	1908.444	2116.810
-30.896	38.582	1905.803	2117.284
-29.881	38.412	1905.065	2114.536
-28.867	38.372	1903.707	2112.511
-27.852	38.366	1902.149	2110.634
-26.838	38.328	1900.740	2108.573
-25.823	38.245	1899.892	2106.646
-24.809	38.290	1898.168	2105.141
-23.794	38.256	1897.510	2103.960
-22.779	38.384	1895.611	2103.156
-21.765	38.094	1895.036	2099.300
-20.750	38.108	1893.579	2097.749
-19.736	38.200	1892.620	2097.598
-18.721	38.194	1890.953	2095.602
-17.706	38.175	1889.779	2094.014
-16.692	38.214	1889.236	2093.747
-15.677	38.147	1887.850	2091.408
-14.663	38.046	1886.808	2089.091
-13.648	38.072	1885.366	2087.689
-12.633	38.159	1883.328	2086.277
-11.619	38.200	1882.022	2085.194
-10.604	38.128	1880.543	2082.702
-9.590	38.077	1880.323	2081.826
-8.575	38.022	1880.095	2080.899
-7.560	38.145	1877.742	2079.524
-6.546	38.111	1877.200	2078.483
-5.531	38.145	1875.018	2076.345
-4.517	38.066	1874.087	2074.392
-3.502	38.229	1872.906	2074.743
-2.487	38.231	1872.065	2073.743
-1.473	38.138	1869.607	2069.957
-0.458	38.166	1848.823	2047.155
0.556	33.802	1978.119	2128.481
1.571	32.594	2193.211	2344.536
2.586	34.406	2243.017	2420.646
3.600	34.372	2246.774	2423.980
4.615	34.538	2246.410	2425.410
5.629	34.592	2245.024	2424.315
6.644	34.649	2242.570	2422.107
7.659	34.812	2239.782	2420.879
8.673	35.037	2238.551	2422.119
9.688	34.315	2242.249	2416.631
10.702	30.593	2308.396	2438.663
11.717	26.579	2371.449	2450.482
12.731	13.483	2337.890	2238.671
13.746	2.184	2307.733	2057.248
14.761	0.510	2301.737	2029.044
15.775	0.352	2300.744	2025.785
16.790	0.302	2298.706	2023.083
17.804	0.340	2297.485	2022.279
18.819	0.287	2296.362	2020.325
19.834	0.346	2294.441	2019.198
20.848	0.197	2293.916	2016.487
21.863	0.281	2291.201	2014.987
22.877	0.307	2289.555	2013.642
23.892	0.318	2286.488	2010.852
24.907	0.242	2285.291	2008.536
25.921	0.200	2284.333	2006.903
26.936	0.220	2281.706	2004.615
27.950	0.276	2279.071	2002.807
28.965	0.206	2277.732	2000.454
29.980	0.289	2275.342	1999.220
30.994	0.472	2273.637	1999.923
32.009	7.074	2297.813	2109.631
33.023	25.179	2353.674	2407.136
34.038	37.672	2384.667	2608.042
35.053	41.155	2389.880	2660.313
36.067	40.787	2385.755	2650.477
37.082	39.829	2381.347	2632.428
38.096	39.811	2379.472	2629.792
39.111	40.479	2378.788	2637.659
40.126	40.557	2376.890	2636.288
41.140	41.417	2377.864	2648.542
42.155	41.259	2374.699	2642.587
43.169	40.798	2373.588	2634.898
44.184	41.527	2373.086	2643.738
45.199	41.826	2371.841	2646.012
46.213	41.471	2369.757	2638.648
47.228	41.155	2367.876	2632.040
48.242	41.251	2366.419	2631.374
49.257	41.138	2363.666	2626.506
50.271	41.564	2363.145	2631.250
51.286	41.690	2361.057	2630.282
52.301	41.023	2356.380	2615.948
53.315	39.740	2351.904	2593.729
54.330	36.137	2337.574	2530.182
55.344	32.563	2325.011	2469.287
56.359	32.213	2320.430	2459.521
57.374	31.902	2316.904	2451.412
58.388	31.539	2313.839	2443.115
59.403	31.826	2311.721	2444.347
60.417	32.556	2312.421	2454.363
61.432	32.762	2310.049	2454.238
62.447	32.184	2306.400	2442.516
63.461	31.868	2303.064	2434.568
64.476	31.587	2301.159	2428.598
65.490	32.476	2303.234	2442.097
66.505	34.710	2310.734	2478.936
67.520	37.940	2317.054	2527.580
68.534	38.785	2317.307	2538.565
69.549	39.255	2316.210	2543.161
70.563	39.892	2314.844	2549.636
71.578	40.203	2314.991	2553.523
72.593	40.636	2314.823	2558.646
73.607	41.166	2314.085	2564.389
74.622	40.728	2311.400	2555.439
75.636	39.801	2305.670	2536.829
76.651	39.997	2305.225	2538.571
77.666	40.388	2302.775	2540.610
78.680	40.404	2301.837	2539.470
79.695	40.705	2300.691	2541.786
80.709	41.164	2300.348	2547.009
81.724	41.414	2298.356	2547.699
82.739	41.522	2295.773	2545.914
83.753	41.200	2293.313	2538.765
84.768	40.683	2290.072	2528.258
85.782	40.275	2288.278	2520.754
86.797	40.333	2286.321	2519.028
87.812	40.087	2282.496	2511.377
88.826	39.358	2279.455	2498.438
89.841	39.570	2279.478	2500.869
90.855	40.669	2278.532	2513.532
91.870	39.844	2274.269	2498.043
92.884	39.237	2271.821	2487.329
93.899	39.621	2272.117	2492.249
94.914	38.423	2267.110	2471.255
95.928	34.831	2254.730	2412.012
96.943	32.932	2249.487	2382.057
97.957	36.045	2257.817	2430.130
98.972	38.852	2261.469	2469.350
99.987	38.448	2256.590	2458.635
101.001	38.640	2254.517	2458.499
102.016	39.025	2254.696	2463.258
103.030	39.353	2253.517	2465.801
104.045	40.144	2253.613	2475.563
105.060	41.083	2254.240	2487.766
106.074	41.201	2252.678	2487.232
107.089	40.328	2247.274	2470.019
108.103	40.178	2246.645	2467.163
109.118	40.491	2246.862	2471.023
110.133	40.447	2244.603	2467.696
111.147	40.145	2241.726	2460.454
112.162	39.932	2239.660	2455.239
113.176	40.152	2237.382	2455.185
114.191	40.377	2236.724	2456.984
115.206	40.395	2234.277	2454.221
116.220	40.368	2233.204	2452.412
117.235	39.851	2229.630	2441.772
118.249	39.464	2226.430	2433.166
119.264	40.075	2226.237	2440.248
120.279	40.621	2226.127	2446.605
121.293	40.479	2223.726	2441.915
122.308	40.247	2222.750	2437.681
123.322	40.090	2220.567	2433.050
124.337	39.225	2215.528	2416.560
125.352	36.336	2206.528	2370.854
126.366	36.131	2205.397	2366.822
127.381	38.672	2211.798	2404.813
128.395	40.054	2212.182	2421.969
129.410	40.591	2210.681	2426.645
130.424	40.437	2208.976	2422.588
131.439	40.333	2206.411	2418.211
132.454	39.816	2203.553	2408.455
133.468	39.910	2201.040	2406.568
134.483	39.870	2199.383	2403.982
135.497	39.925	2198.254	2403.128
136.512	40.355	2196.726	2406.424
137.527	40.151	2194.671	2401.398
138.541	39.599	2192.791	2392.323
139.556	39.473	2190.185	2387.659
140.570	39.394	2189.914	2386.112
141.585	39.660	2188.560	2387.589
142.600	39.784	2187.187	2387.314
143.614	39.802	2186.795	2386.814
144.629	40.578	2186.250	2395.362
145.643	40.137	2182.371	2385.478
146.658	39.604	2178.804	2374.847
147.673	39.191	2176.400	2366.944
148.687	39.919	2176.942	2376.059
149.702	40.003	2175.770	2375.506
150.716	39.765	2174.414	2370.862
151.731	40.296	2175.270	2377.932
152.746	40.652	2174.558	2381.155
153.760	38.378	2165.782	2343.914
154.775	33.935	2152.467	2275.884
155.789	32.239	2147.930	2250.428
156.804	35.186	2155.194	2293.291
157.819	38.213	2158.775	2333.227
158.833	39.373	2159.807	2347.988
159.848	40.466	2160.389	2361.438
160.862	40.762	2159.318	2363.523
161.877	40.966	2158.160	2364.415
162.892	41.401	2159.497	2370.799
163.906	41.732	2159.124	2374.048
164.921	41.933	2157.687	2374.593
165.935	41.774	2154.928	2369.376
166.950	41.140	2150.962	2357.191
167.964	40.259	2145.740	2340.720
168.979	39.952	2143.874	2334.759
169.994	40.268	2144.098	2338.469
171.008	40.777	2141.922	2341.850
172.023	40.472	2140.837	2336.768
173.037	40.552	2140.053	2336.584
174.052	40.471	2137.893	2332.992
175.067	40.658	2136.576	2333.477
176.081	40.616	2135.219	2331.222
177.096	40.299	2133.081	2324.871
178.110	40.000	2131.294	2319.116
179.125	40.024	2129.494	2317.169
180.140	40.816	2130.223	2327.011
181.154	40.839	2128.614	2325.240
182.169	40.246	2126.475	2315.666
183.183	39.237	2120.379	2296.903
184.198	35.353	2108.398	2238.205
185.213	33.932	2105.846	2218.576
186.227	38.155	2115.705	2278.346
187.242	40.172	2117.624	2303.781
188.256	39.892	2115.750	2298.182
189.271	40.511	2115.975	2305.396
190.286	41.172	2115.998	2312.865
191.300	40.589	2111.332	2300.689
192.315	39.941	2108.291	2289.563
193.329	40.423	2108.434	2295.049
194.344	40.959	2108.467	2301.047
195.359	41.263	2107.256	2302.992
196.373	41.709	2106.684	2307.261
197.388	41.644	2103.222	2302.443
198.402	40.728	2099.696	2287.704
199.417	40.360	2096.283	2279.459
200.432	40.684	2096.276	2282.925
201.446	41.124	2095.963	2287.388
202.461	40.688	2092.223	2278.009
203.475	39.799	2089.997	2265.062
204.490	39.452	2086.853	2257.388
205.504	39.843	2084.916	2259.518
206.519	39.604	2081.508	2252.808
207.534	39.691	2080.651	2252.615
208.548	40.344	2080.693	2259.878
209.563	39.207	2076.246	2241.761
210.577	38.816	2075.130	2235.808
211.592	40.217	2078.054	2254.754
212.607	38.640	2069.706	2227.415
213.621	32.671	2054.159	2142.470
214.636	32.194	2055.610	2138.279
215.650	36.500	2064.970	2197.099
216.665	39.219	2068.537	2231.703
217.680	40.551	2069.260	2247.401
218.694	40.904	2069.241	2251.129
219.709	40.363	2066.495	2241.725
220.723	40.512	2067.093	2243.797
221.738	41.354	2066.078	2251.996
222.753	41.255	2062.888	2247.127
223.767	40.755	2059.683	2237.706
224.782	40.207	2056.341	2227.610
225.796	40.046	2055.326	2224.425
226.811	40.696	2055.890	2232.119
227.826	40.923	2053.926	2232.281
228.840	41.385	2053.637	2236.914
229.855	41.063	2051.667	2230.868
230.869	40.284	2046.186	2215.880
231.884	39.198	2044.699	2201.788
232.899	39.552	2043.965	2204.718
233.913	40.207	2044.640	2212.551
234.928	40.900	2045.353	2220.842
235.942	41.393	2044.533	2225.212
236.957	41.334	2042.408	2221.974
237.972	41.188	2041.248	2218.817
238.986	41.085	2041.415	2217.579
240.001	40.779	2037.663	2209.813
241.015	40.197	2035.517	2200.712
242.030	39.668	2031.397	2190.096
243.045	36.537	2020.248	2142.985
244.059	35.139	2020.018	2126.901
245.074	38.922	2025.082	2174.203
246.088	40.436	2025.876	2191.641
247.103	40.476	2025.122	2190.998
248.117	40.767	2023.804	2192.550
249.132	41.048	2023.361	2194.918
250.147	40.855	2019.995	2188.869
251.161	40.266	2017.455	2179.337
252.176	40.161	2016.281	2176.649
253.190	40.313	2013.505	2175.070
254.205	40.216	2012.542	2172.696
255.220	40.857	2012.270	2179.212
256.234	40.946	2010.434	2177.941
257.249	40.448	2009.231	2170.905
258.263	40.301	2008.909	2168.669
259.278	40.581	2008.360	2170.900
260.293	40.791	2005.813	2170.199
261.307	40.445	2003.686	2163.835
262.322	40.571	2002.218	2163.376
263.336	40.060	1998.564	2153.574
264.351	39.464	1995.980	2144.015
265.366	39.786	1995.199	2146.436
266.380	40.027	1995.015	2148.618
267.395	39.416	1991.742	2138.169
268.409	39.219	1990.245	2134.155
269.424	40.099	1989.977	2143.208
270.439	40.240	1989.245	2143.700
271.453	38.901	1981.740	2120.820
272.468	34.713	1970.440	2063.123
273.482	33.319	1968.841	2046.066
274.497	36.364	1974.871	2085.209
275.512	38.880	1977.131	2114.644
276.526	39.580	1976.110	2120.872
277.541	39.448	1974.456	2117.423
278.555	39.556	1972.333	2116.053
279.570	39.034	1969.876	2107.543
280.585	38.666	1967.357	2100.631
281.599	39.070	1968.189	2105.615
282.614	40.011	1969.984	2117.429
283.628	40.891	1970.977	2127.710
284.643	41.348	1969.165	2130.413
285.657	41.237	1967.797	2127.484
286.672	41.096	1965.394	2123.124
287.687	40.702	1963.426	2116.519
288.701	40.415	1961.678	2111.306
289.716	40.213	1960.259	2107.365
290.730	40.506	1959.043	2108.942
291.745	41.086	1958.474	2114.276
292.760	40.506	1956.205	2105.379
293.774	40.075	1955.185	2099.437
294.789	40.711	1955.830	2106.665
295.803	41.008	1953.894	2107.485
296.818	40.997	1951.679	2104.733
297.833	41.206	1951.385	2106.388
298.847	41.258	1950.996	2106.268
299.862	41.329	1949.233	2104.865
300.876	40.678	1943.782	2091.836
301.891	36.787	1932.091	2037.933
302.906	34.079	1929.011	2005.783
303.920	38.160	1937.926	2058.151
304.935	40.709	1939.775	2086.850
305.949	40.953	1938.452	2087.751
306.964	41.443	1938.013	2092.190
307.979	41.201	1935.261	2086.428
308.993	39.716	1929.912	2064.803
310.008	39.339	1928.262	2058.821
311.022	40.250	1928.981	2068.918
312.037	40.932	1929.347	2076.229
313.052	40.799	1925.685	2070.648
314.066	39.853	1923.059	2057.671
315.081	39.858	1922.171	2056.525
316.095	40.131	1921.323	2058.232
317.110	39.826	1918.862	2052.166
318.125	39.712	1917.304	2049.057
319.139	39.723	1916.861	2048.457
320.154	40.692	1916.392	2057.814
321.168	40.789	1916.485	2058.677
322.183	41.238	1916.572	2063.203
323.197	40.951	1913.522	2056.690
324.212	40.437	1910.112	2047.441
325.227	39.850	1907.367	2038.166
326.241	39.603	1905.412	2033.268
327.256	39.749	1904.543	2033.609
328.270	39.607	1903.316	2030.585
329.285	39.690	1903.043	2030.912
330.300	38.939	1897.726	2017.244
331.314	34.347	1885.860	1957.114
332.329	33.269	1885.153	1945.018
333.343	37.357	1893.787	1996.009
334.358	40.161	1897.260	2028.384
335.373	40.697	1896.443	2032.785
336.387	40.927	1894.424	2032.746
337.402	40.692	1891.876	2027.360
338.416	40.302	1889.173	2020.219
339.431	40.176	1888.670	2018.141
340.446	41.355	1889.901	2031.302
341.460	41.789	1889.027	2034.559
342.475	42.072	1887.370	2035.423
343.489	41.116	1883.086	2020.816
344.504	40.220	1881.320	2009.534
345.519	40.341	1879.568	2008.663
346.533	40.429	1877.761	2007.382
347.548	40.463	1876.368	2006.000
348.562	40.411	1875.461	2004.260
349.577	40.478	1875.265	2004.496
350.592	40.818	1875.120	2007.553
351.606	41.079	1874.123	2008.893
352.621	40.966	1871.408	2004.594
353.635	40.686	1870.020	2000.036
354.650	40.227	1868.389	1993.409
355.665	40.267	1866.230	1991.267
356.679	40.755	1865.504	1995.190
357.694	40.922	1864.632	1995.698
358.708	41.245	1864.182	1998.241
359.723	40.074	1856.942	1978.467
360.738	34.518	1844.503	1909.280
361.752	33.430	1844.804	1898.410
362.767	38.230	1852.564	1954.576
363.781	40.602	1854.809	1980.546
364.796	41.389	1855.450	1988.888
365.810	40.717	1851.632	1977.834
366.825	40.141	1849.563	1969.627
367.840	40.388	1848.702	1970.946
368.854	40.006	1846.706	1964.765
369.869	39.706	1846.016	1960.793
370.883	39.713	1844.139	1958.635
371.898	39.883	1843.111	1959.008
372.913	40.502	1843.391	1965.239
373.927	40.460	1841.751	1962.838
374.942	40.208	1839.670	1957.884
375.956	40.244	1837.718	1955.928
376.971	39.803	1834.856	1948.276
377.986	39.871	1834.090	1947.899
379.000	40.784	1834.779	1957.445
380.015	40.946	1834.483	1958.496
381.029	40.499	1832.049	1951.250
382.044	40.409	1829.988	1947.924
383.059	40.374	1827.469	1944.672
384.073	39.503	1824.465	1932.653
385.088	39.244	1822.966	1928.284
386.102	39.800	1823.423	1934.018
387.117	40.096	1822.749	1935.984
388.132	40.187	1820.988	1934.773
389.146	38.733	1816.508	1915.510
390.161	34.288	1804.003	1858.625
391.175	33.359	1801.240	1846.453
392.190	36.807	1805.832	1884.754
393.205	38.211	1807.290	1899.780
394.219	38.786	1807.044	1904.914
395.234	38.892	1806.364	1904.998
396.248	39.127	1805.870	1906.542
397.263	39.125	1803.449	1903.738
398.278	38.794	1800.944	1897.646
399.292	38.738	1800.704	1896.622
400.307	40.375	1803.934	1915.728
401.321	41.472	1803.761	1925.966
402.336	40.939	1801.279	1917.924
403.350	40.481	1799.239	1911.087
404.365	41.258	1798.904	1918.025
405.380	41.983	1799.513	1925.453
406.394	41.559	1796.502	1917.907
407.409	40.920	1794.668	1909.555
408.423	40.451	1792.506	1902.501
409.438	40.154	1790.532	1897.320
410.453	40.202	1789.418	1896.374
411.467	40.445	1789.717	1898.806
412.482	40.603	1788.361	1898.662
413.496	40.754	1787.738	1899.218
414.511	41.034	1785.517	1899.321
415.526	41.058	1783.680	1897.368
416.540	41.445	1782.578	1899.676
417.555	41.334	1781.379	1897.109
418.569	40.642	1780.253	1889.065
419.584	40.936	1779.913	1891.287
420.599	40.903	1778.651	1889.405
421.613	39.999	1776.116	1877.859
422.628	39.458	1773.908	1870.134
423.642	40.511	1775.577	1881.727
424.657	41.270	1772.789	1885.768
425.672	39.985	1769.834	1870.183
426.686	40.376	1769.653	1873.485
427.701	40.767	1769.087	1876.379
428.715	40.862	1767.933	1875.836
429.730	41.482	1768.976	1882.596
430.745	42.572	1770.260	1894.080
431.759	43.064	1770.197	1898.445
432.774	42.249	1765.748	1885.744
433.788	37.322	1750.554	1822.961
434.803	30.856	1737.424	1748.303
435.818	29.108	1733.826	1728.001
436.832	28.915	1732.945	1725.092
437.847	28.139	1726.571	1711.245
438.861	18.642	1697.735	1594.211
439.876	4.463	1671.469	1438.157
440.890	0.604	1664.263	1395.980
441.905	0.294	1663.033	1391.897
442.920	0.393	1661.218	1391.128
443.934	0.337	1659.619	1389.106
444.949	0.363	1658.397	1388.158
445.963	0.218	1657.964	1386.289
446.978	0.233	1657.156	1385.586
447.993	0.270	1656.398	1385.133
449.007	0.297	1654.158	1383.337
450.022	0.337	1651.683	1381.470
451.036	0.292	1650.984	1380.309
452.051	1.390	1656.966	1395.289
453.066	13.705	1688.645	1537.129
454.080	30.137	1715.869	1716.005
455.095	32.888	1718.333	1743.849
456.109	32.390	1717.812	1738.489
457.124	32.906	1716.675	1741.918
458.139	32.226	1714.480	1733.179
459.153	31.819	1712.065	1726.760
460.168	31.707	1711.203	1724.648
461.182	32.627	1712.622	1734.391
462.197	33.815	1713.094	1745.645
463.212	34.336	1712.511	1749.652
464.226	34.652	1711.518	1751.343
465.241	34.634	1710.352	1749.772
466.255	34.642	1709.237	1748.497
467.270	34.391	1706.815	1743.501
468.285	34.855	1707.346	1748.101
469.299	35.653	1707.544	1755.429
470.314	35.749	1705.734	1754.241
471.328	35.602	1704.225	1751.127
472.343	35.560	1703.977	1750.276
473.358	35.616	1703.011	1749.590
474.372	35.607	1701.635	1747.883
475.387	36.458	1702.256	1756.095
476.401	36.969	1700.978	1759.228
477.416	36.473	1698.311	1751.738
478.430	35.822	1696.220	1743.447
479.445	36.080	1697.281	1746.674
480.460	36.551	1696.033	1749.471
481.474	36.598	1694.500	1748.107
482.489	35.898	1691.992	1738.958
483.503	35.184	1687.890	1728.063
484.518	35.095	1686.400	1725.527
485.533	35.170	1685.977	1725.567
486.547	35.178	1683.566	1722.960
487.562	33.982	1681.056	1709.386
488.576	34.324	1680.893	1712.101
489.591	35.121	1680.551	1718.746
490.606	35.712	1680.307	1723.618
491.620	35.670	1678.206	1720.883
492.635	34.746	1673.494	1707.543
493.649	33.735	1670.571	1695.285
494.664	34.030	1672.577	1699.766
495.679	35.477	1673.082	1713.071
496.693	35.376	1671.982	1710.833
497.708	34.976	1669.181	1704.183
498.722	34.215	1666.380	1694.311
499.737	34.320	1665.169	1693.823
500.752	34.752	1665.020	1697.321
501.766	35.087	1664.448	1699.524
502.781	34.984	1661.921	1695.822
503.795	35.253	1661.206	1697.291
504.810	35.280	1659.690	1695.779
505.825	34.407	1657.356	1685.434
506.839	33.848	1655.050	1677.928
507.854	33.895	1654.081	1677.160
508.868	33.942	1652.488	1675.763
509.883	33.820	1650.871	1672.840
510.898	33.314	1648.574	1665.832
511.912	32.419	1645.277	1654.398
512.927	31.945	1642.256	1646.980
513.941	31.784	1640.809	1643.913
514.956	32.083	1641.084	1646.630
515.971	32.744	1640.247	1651.411
516.985	32.494	1638.251	1647.012
518.000	31.817	1636.885	1639.486
519.014	31.708	1635.038	1636.481
520.029	31.581	1633.676	1633.808
521.043	31.602	1631.945	1632.065
522.058	31.738	1632.248	1633.368
523.073	32.258	1631.367	1636.843
524.087	31.992	1630.737	1633.692
525.102	32.418	1629.517	1635.998
526.116	33.328	1631.084	1645.326
527.131	34.232	1630.856	1652.790
528.146	33.710	1629.117	1646.278
529.160	33.431	1627.527	1642.043
530.175	33.684	1626.647	1643.167
531.189	33.618	1625.388	1641.123
532.204	33.337	1624.100	1637.186
533.219	33.682	1624.730	1640.623
534.233	34.462	1625.416	1647.893
535.248	34.421	1622.022	1643.898
536.262	33.446	1619.544	1632.756
537.277	33.366	1619.204	1631.524
538.292	34.206	1618.544	1637.932
539.306	34.535	1616.596	1638.600
540.321	34.015	1614.558	1631.857
541.335	33.513	1612.055	1624.807
542.350	33.548	1611.919	1624.772
543.365	33.898	1610.989	1626.656
544.379	34.073	1609.706	1626.676
545.394	33.935	1607.730	1623.298
546.408	33.763	1607.242	1621.131
547.423	34.544	1608.377	1628.789
548.438	35.430	1608.000	1635.810
549.452	34.908	1605.127	1628.221
550.467	34.376	1602.373	1620.684
551.481	34.045	1601.371	1616.655
552.496	33.645	1598.915	1610.566
553.511	33.169	1597.307	1604.697
554.525	33.209	1596.032	1603.561
555.540	32.937	1594.996	1600.018
556.554	33.038	1594.258	1599.937
557.569	33.052	1592.360	1597.967
558.583	32.919	1590.726	1595.007
559.598	32.836	1589.831	1593.210
560.613	32.919	1588.652	1592.542
561.627	32.634	1586.441	1587.726
562.642	32.431	1584.276	1583.649
563.656	31.797	1582.018	1575.849
564.671	31.641	1580.020	1572.349
565.686	31.473	1579.083	1569.813
566.700	31.536	1577.272	1568.357
567.715	31.444	1576.130	1566.258
568.729	31.722	1575.404	1567.688
569.744	32.248	1575.373	1571.892
570.759	32.470	1573.781	1571.977
571.773	32.196	1571.937	1567.654
572.788	31.817	1570.484	1562.838
573.802	31.674	1568.803	1559.786
574.817	31.442	1566.799	1555.666
575.832	31.272	1566.260	1553.517
576.846	31.888	1566.898	1559.117
577.861	32.589	1565.605	1563.491
578.875	32.513	1564.818	1561.892
579.890	32.382	1563.869	1559.660
580.905	32.738	1562.544	1561.120
581.919	32.670	1562.221	1560.041
582.934	32.675	1562.346	1560.023
583.948	32.488	1560.731	1556.664
584.963	32.452	1559.229	1554.686
585.978	32.848	1559.317	1557.869
586.992	32.909	1557.635	1556.513
588.007	32.655	1557.191	1553.776
589.021	32.780	1555.761	1553.200
590.036	32.267	1552.980	1545.994
591.051	32.388	1552.060	1545.893
592.065	32.785	1550.728	1547.660
593.080	32.951	1549.659	1547.775
594.094	33.204	1548.426	1548.440
595.109	33.303	1547.988	1548.628
596.123	34.220	1548.027	1556.023
597.138	34.198	1546.237	1553.856
598.153	33.210	1544.127	1543.453
599.167	32.861	1541.459	1537.737
600.182	32.819	1540.573	1536.328
601.196	32.721	1540.154	1534.924
602.211	32.943	1539.338	1535.747
603.226	32.489	1537.417	1529.939
604.240	32.616	1536.012	1529.389
605.255	32.731	1534.499	1528.636
606.269	32.483	1533.335	1525.274
607.284	32.416	1532.111	1523.334
608.299	32.325	1530.184	1520.496
609.313	32.256	1528.679	1518.256
610.328	32.194	1526.861	1515.767
611.342	31.986	1525.193	1512.247
612.357	31.866	1524.959	1510.856
613.372	31.860	1523.568	1509.255
614.386	31.832	1522.225	1507.511
615.401	31.722	1521.745	1505.966
616.415	31.553	1520.528	1503.218
617.430	31.442	1519.091	1500.721
618.445	31.260	1516.864	1496.875
619.459	31.143	1515.614	1494.520
620.474	31.300	1515.602	1495.594
621.488	31.759	1516.304	1499.803
622.503	32.772	1515.625	1507.098
623.518	32.047	1514.322	1499.797
624.532	31.282	1511.392	1490.582
625.547	31.159	1509.417	1487.472
626.561	30.972	1508.233	1484.632
627.576	30.918	1507.459	1483.260
628.591	31.325	1507.377	1486.251
629.605	31.891	1507.340	1490.563
630.620	32.381	1506.647	1493.616
631.634	33.037	1507.059	1499.077
632.649	33.001	1505.989	1497.542
633.663	32.490	1503.313	1490.642
634.678	31.790	1500.098	1481.711
635.693	31.242	1497.380	1474.502
636.707	31.003	1495.969	1471.044
637.722	30.798	1495.241	1468.526
638.736	31.143	1494.435	1470.293
639.751	31.448	1494.491	1472.581
640.766	31.566	1492.785	1471.661
641.780	31.557	1491.382	1470.029
642.795	31.654	1490.681	1469.925
643.809	31.804	1490.206	1470.462
644.824	31.908	1490.253	1471.154
645.839	32.270	1489.341	1472.930
646.853	32.335	1487.983	1471.921
647.868	32.225	1486.596	1469.512
648.882	32.272	1484.907	1468.037
649.897	32.270	1484.300	1467.243
650.912	32.406	1482.350	1466.206
651.926	32.394	1481.962	1465.548
652.941	32.436	1481.327	1465.076
653.955	32.241	1478.660	1460.740
654.970	31.771	1476.455	1454.719
655.985	31.316	1474.190	1448.770
656.999	31.009	1473.490	1445.519
658.014	31.002	1472.680	1444.494
659.028	31.478	1472.861	1448.203
660.043	32.225	1472.602	1453.586
661.058	32.507	1470.959	1453.980
662.072	32.384	1470.043	1451.945
663.087	32.263	1469.338	1450.140
664.101	32.264	1467.470	1448.126
665.116	31.968	1466.989	1445.191
666.131	32.009	1465.509	1443.876
667.145	32.134	1464.292	1443.467
668.160	32.047	1462.685	1441.038
669.174	31.823	1460.957	1437.443
670.189	31.791	1460.165	1436.244
671.204	32.064	1459.259	1437.279
672.218	32.021	1458.253	1435.787
673.233	31.919	1456.996	1433.592
674.247	31.902	1455.592	1431.909
675.262	31.629	1454.308	1428.386
676.276	31.455	1453.150	1425.741
677.291	31.391	1452.885	1424.821
678.306	31.745	1452.295	1426.777
679.320	31.888	1450.050	1425.496
680.335	31.381	1448.842	1420.269
681.349	31.391	1448.389	1419.731
682.364	31.422	1447.331	1418.757
683.379	31.301	1445.657	1416.023
684.393	31.070	1444.404	1412.869
685.408	31.032	1443.193	1411.229
686.422	31.286	1441.449	1411.285
687.437	30.946	1441.048	1408.141
688.452	30.619	1439.823	1404.292
689.466	30.720	1438.001	1403.116
690.481	30.789	1437.223	1402.712
691.495	31.076	1437.815	1405.291
692.510	31.973	1438.468	1412.553
693.525	32.970	1437.659	1419.127
694.539	32.540	1435.624	1413.700
695.554	31.376	1433.591	1402.754
696.568	30.733	1431.290	1395.493
697.583	30.610	1429.757	1392.905
698.598	30.698	1429.280	1392.939
699.612	30.755	1427.972	1391.921
700.627	30.890	1426.943	1391.769
701.641	31.033	1425.998	1391.751
702.656	31.272	1424.963	1392.366
703.671	31.219	1425.146	1391.980
704.685	31.463	1424.064	1392.587
705.700	31.692	1423.379	1393.464
706.714	31.574	1422.214	1391.270
707.729	31.912	1421.266	1392.697
708.744	31.929	1419.787	1391.212
709.758	31.794	1418.500	1388.780
710.773	31.045	1416.979	1381.547
711.787	31.003	1414.951	1379.096
712.802	31.564	1414.194	1382.359
713.816	31.749	1414.310	1383.680
714.831	31.899	1413.421	1383.753
715.846	31.828	1411.584	1381.265
716.860	31.647	1410.312	1378.517
717.875	31.684	1409.192	1377.531
718.889	31.676	1407.894	1376.039
719.904	31.672	1406.832	1374.803
720.919	31.516	1406.029	1372.702
721.933	31.312	1404.652	1369.692
722.948	31.090	1404.076	1367.334
723.962	31.269	1402.498	1366.947
724.977	31.161	1401.119	1364.645
725.992	31.060	1400.602	1363.241
727.006	31.525	1399.224	1365.148
728.021	31.220	1398.060	1361.610
729.035	31.276	1396.488	1360.327
730.050	31.231	1395.799	1359.162
731.065	31.207	1394.414	1357.478
732.079	30.926	1393.582	1354.454
733.094	31.013	1392.649	1354.019
734.108	31.345	1390.804	1354.484
735.123	31.048	1389.622	1351.004
736.138	30.938	1389.213	1349.650
737.152	30.894	1387.880	1347.872
738.167	30.702	1386.570	1345.043
739.181	30.868	1385.226	1344.783
740.196	30.903	1383.895	1343.584
741.211	30.710	1383.879	1342.011
742.225	30.802	1382.836	1341.503
743.240	30.817	1380.781	1339.453
744.254	30.663	1379.167	1336.618
745.269	30.460	1378.564	1334.409
746.284	30.258	1378.195	1332.435
747.298	30.335	1377.190	1331.860
748.313	30.672	1376.685	1333.640
749.327	31.325	1376.938	1338.427
750.342	32.122	1377.795	1344.837
751.356	32.741	1377.486	1348.829
752.371	32.609	1374.922	1345.209
753.386	31.400	1371.583	1333.121
754.400	30.690	1369.995	1326.332
755.415	30.878	1368.757	1326.321
756.429	31.073	1367.540	1326.377
757.444	31.111	1367.268	1326.224
758.459	31.066	1366.163	1324.674
759.473	30.882	1364.824	1321.902
760.488	30.908	1363.750	1320.891
761.502	30.802	1362.286	1318.560
762.517	30.951	1361.647	1318.844
763.532	31.449	1360.413	1321.028
764.546	31.344	1359.245	1318.994
765.561	30.911	1357.814	1314.375
766.575	30.274	1356.807	1308.729
767.590	30.269	1356.224	1307.977
768.605	30.900	1355.901	1311.975
769.619	31.342	1354.464	1313.554
770.634	31.393	1352.803	1312.141
771.648	31.055	1351.683	1308.520
772.663	30.668	1351.352	1305.307
773.678	30.854	1350.081	1305.234
774.692	30.918	1349.162	1304.643
775.707	30.896	1348.758	1303.943
776.721	30.708	1348.235	1301.956
777.736	30.789	1345.688	1299.911
778.751	30.639	1344.533	1297.591
779.765	30.819	1344.025	1298.202
780.780	30.521	1343.415	1295.369
781.794	30.594	1342.928	1295.257
782.809	30.521	1341.230	1292.951
783.824	30.171	1340.183	1289.343
784.838	30.555	1339.742	1291.446
785.853	31.789	1339.714	1299.878
786.867	31.588	1339.286	1297.903
787.882	30.954	1337.923	1292.015
788.897	30.689	1336.142	1288.295
789.911	30.304	1335.259	1284.611
790.926	30.277	1333.605	1282.677
791.940	29.968	1332.407	1279.226
792.955	30.115	1330.437	1278.200
793.969	30.077	1329.267	1276.663
794.984	30.256	1328.529	1277.037
795.999	30.296	1327.537	1276.210
797.013	30.339	1326.209	1275.075
798.028	30.391	1324.727	1273.855
799.042	30.342	1324.063	1272.728
800.057	30.228	1323.650	1271.393
801.072	30.279	1321.760	1269.775
802.086	30.399	1320.759	1269.486
803.101	30.534	1319.454	1269.007
804.115	30.276	1319.307	1266.942
805.130	30.354	1318.744	1266.787
806.145	30.244	1317.557	1264.738
807.159	30.410	1315.826	1264.067
808.174	30.497	1315.427	1264.126
809.188	30.824	1314.337	1265.160
810.203	30.820	1313.043	1263.737
811.218	30.758	1311.458	1261.633
812.232	30.359	1309.624	1257.004
813.247	30.077	1308.526	1253.884
814.261	30.257	1308.766	1255.187
815.276	30.713	1308.305	1257.697
816.291	30.501	1306.522	1254.391
817.305	30.293	1304.530	1250.921
818.320	30.353	1303.311	1250.008
819.334	30.331	1302.563	1248.992
820.349	30.450	1301.022	1248.167
821.364	30.368	1299.356	1245.864
822.378	30.130	1298.198	1243.004
823.393	30.149	1296.951	1241.789
824.407	30.122	1296.446	1240.972
825.422	29.996	1295.964	1239.517
826.437	30.151	1294.503	1239.015
827.451	30.070	1293.221	1237.093
828.466	30.673	1293.836	1241.584
829.480	31.423	1292.583	1245.252
830.495	31.013	1289.899	1239.777
831.509	30.352	1288.121	1233.512
832.524	30.139	1287.087	1230.948
833.539	29.978	1285.478	1228.189
834.553	29.988	1283.745	1226.455
835.568	30.038	1282.704	1225.648
836.582	30.015	1282.168	1224.832
837.597	30.243	1280.984	1225.068
838.612	30.240	1279.522	1223.505
839.626	30.236	1278.657	1222.504
840.641	30.300	1277.933	1222.089
841.655	30.378	1277.588	1222.127
842.670	30.198	1276.138	1219.409
843.685	29.922	1274.297	1215.682
844.699	30.026	1273.985	1215.920
845.714	30.204	1272.531	1215.563
846.728	30.042	1271.610	1213.469
847.743	29.868	1271.175	1211.767
848.758	29.867	1269.725	1210.233
849.772	29.963	1267.866	1208.944
850.787	30.055	1266.278	1207.892
851.801	29.963	1265.371	1206.276
852.816	30.040	1264.112	1205.436
853.831	29.914	1263.181	1203.580
854.845	29.871	1261.786	1201.824
855.860	29.897	1260.060	1200.208
856.874	29.888	1259.509	1199.481
857.889	30.389	1259.028	1202.143
858.904	30.954	1258.609	1205.268
859.918	31.433	1258.487	1208.124
860.933	31.784	1257.190	1209.010
861.947	31.359	1255.158	1204.161
862.962	30.729	1253.108	1197.970
863.977	30.420	1251.202	1194.008
864.991	30.189	1250.468	1191.674
866.006	29.926	1250.302	1189.677
867.020	29.899	1248.836	1187.963
868.035	29.851	1247.044	1185.807
869.049	29.911	1246.323	1185.364
870.064	29.940	1245.547	1184.674
871.079	29.916	1245.050	1183.904
872.093	29.929	1244.242	1183.075
873.108	29.933	1243.273	1182.042
874.122	30.020	1241.736	1180.997
875.137	30.049	1241.053	1180.390
876.152	29.991	1240.542	1179.389
877.166	29.781	1238.495	1175.962
878.181	29.782	1237.348	1174.741
879.195	29.708	1236.948	1173.744
880.210	29.951	1235.858	1174.120
881.225	29.889	1234.816	1172.596
882.239	29.849	1234.124	1171.541
883.254	29.739	1233.005	1169.641
884.268	29.743	1232.097	1168.665
885.283	29.822	1230.970	1167.959
886.298	29.744	1229.542	1165.970
887.312	29.710	1228.617	1164.736
888.327	29.699	1227.591	1163.554
889.341	29.798	1225.928	1162.466
890.356	29.673	1225.468	1161.102
891.371	29.610	1225.490	1160.584
892.385	29.554	1225.306	1159.920
893.400	29.770	1224.129	1160.027
894.414	29.942	1222.432	1159.365
895.429	30.369	1222.175	1161.664
896.444	31.291	1222.195	1167.343
897.458	32.325	1222.151	1173.648
898.473	31.628	1220.623	1167.675
899.487	30.693	1217.842	1159.024
900.502	30.201	1215.796	1153.863
901.517	29.772	1214.517	1149.826
902.531	29.797	1213.282	1148.676
903.546	29.713	1212.688	1147.456
904.560	29.592	1212.145	1146.049
905.575	29.640	1210.960	1145.087
906.589	29.728	1209.940	1144.536
907.604	29.672	1209.179	1143.332
