DTS Sentinel unit serial number:	SN409020Multiplexer serial number:	ORYXHardware model number:	OX4-SRSoftware version number:	ORYX F/W v3.00 Oryx Data Collector v3.7.2.0data status	okinstallation	HaddamTimeLapsedifferential loss correction	single-endedforward channel	channel 3reverse channel	N/Adate	2011/06/21time	16:11:16forward acquisition time	30.00reverse acquisition time	0.00gamma	498.7831k internal	0.1792k external	0.1792temperature offset calibration	1.0074default loss term (dB/km)	0.3790temperature slope calibration	1.3530multiplexer offset coefficient	1.0000multiplexer slope coefficient	1.0000fibre end	0.00T internal ref (°C)	34.47T ext. ref 1 (°C)	26.43T ext. ref 2 (°C)	0.23length (m)	temperature (°C)	Stokes	anti-Stokes-747.200	-110.859	-0.559	0.148
-746.185	-93.407	-0.180	-0.064
-745.171	27.466	0.060	-0.066
-744.156	-200.000	-0.039	0.718
-743.142	800.000	-0.054	0.270
-742.127	800.000	-0.118	0.485
-741.112	-200.000	0.008	0.126
-740.098	117.480	-0.297	0.475
-739.083	137.713	0.222	0.378
-738.069	-200.000	-0.045	0.981
-737.054	-138.134	-0.222	0.032
-736.039	294.563	0.159	-0.378
-735.025	-98.671	0.144	-0.047
-734.010	-21.009	-0.159	0.126
-732.996	800.000	0.053	0.201
-731.981	-96.593	0.193	-0.065
-730.966	-165.354	-0.100	0.006
-729.952	-114.590	0.267	0.066
-728.937	800.000	0.051	-0.187
-727.923	174.476	-0.131	-0.247
-726.908	253.006	-0.157	-0.349
-725.894	6.393	-0.299	-0.288
-724.879	209.768	0.074	0.151
-723.864	-53.971	0.284	-0.167
-722.850	-22.712	-0.091	-0.071
-721.835	-158.863	0.358	0.026
-720.821	99.331	-0.058	-0.087
-719.806	-30.167	-0.279	-0.205
-718.791	-26.401	0.446	-0.339
-717.777	692.662	0.015	-0.051
-716.762	-150.939	0.252	-0.024
-715.748	-200.000	-0.029	0.352
-714.733	-134.012	0.315	0.050
-713.718	-0.500	-0.273	-0.251
-712.704	-79.256	0.212	0.093
-711.689	-200.000	0.063	0.500
-710.675	398.314	-0.079	-0.217
-709.660	28.223	-0.385	-0.421
-708.645	-200.000	0.031	-0.389
-707.631	-115.322	0.460	-0.112
-706.616	-29.038	-0.090	0.067
-705.602	-131.317	0.109	0.019
-704.587	-90.996	-0.412	-0.152
-703.572	193.905	0.291	-0.573
-702.558	-87.078	0.314	-0.123
-701.543	-200.000	-0.060	-0.648
-700.529	46.063	-0.154	0.185
-699.514	-115.913	-0.513	0.123
-698.499	800.000	0.050	0.246
-697.485	800.000	0.067	0.244
-696.470	8.990	-0.250	-0.245
-695.456	205.898	0.079	-0.159
-694.441	800.000	0.125	-0.480
-693.426	3.428	-0.292	-0.276
-692.412	-45.438	0.251	-0.161
-691.397	332.824	0.300	-0.753
-690.383	-95.147	-0.138	-0.048
-689.368	800.000	0.057	-0.268
-688.354	-169.802	-0.172	-0.008
-687.339	-99.170	-0.066	0.021
-686.324	-55.530	0.155	0.090
-685.310	-62.504	0.307	0.165
-684.295	30.497	0.150	0.166
-683.281	399.936	-0.157	-0.429
-682.266	-200.000	0.028	-0.434
-681.251	800.000	-0.058	-0.324
-680.237	-133.837	-0.185	0.030
-679.222	-20.320	-0.348	-0.277
-678.208	-72.577	-0.350	-0.167
-677.193	-156.880	0.100	-0.008
-676.178	306.733	0.125	-0.302
-675.164	245.993	0.149	-0.327
-674.149	-200.000	0.027	-0.347
-673.135	-130.617	0.312	-0.054
-672.120	-85.368	0.342	0.137
-671.105	-55.630	-0.206	0.119
-670.091	800.000	0.056	0.226
-669.076	137.013	0.169	-0.287
-668.062	-34.713	-0.293	-0.207
-667.047	324.852	-0.123	0.305
-666.032	-157.208	0.444	-0.034
-665.018	-1.904	-0.655	-0.595
-664.003	418.062	-0.111	0.309
-662.989	-99.843	0.490	0.158
-661.974	-10.088	0.624	0.536
-660.959	45.819	-0.202	0.242
-659.945	21.959	-0.198	0.209
-658.930	-43.570	0.133	-0.087
-657.916	-20.444	0.265	-0.210
-656.901	-200.000	-0.002	-0.116
-655.886	34.964	0.300	-0.340
-654.872	-7.738	0.181	-0.158
-653.857	238.153	0.131	0.282
-652.843	-88.372	-0.349	0.134
-651.828	-59.238	0.293	0.162
-650.814	223.826	0.214	0.448
-649.799	800.000	0.075	0.295
-648.784	31.350	-0.204	0.226
-647.770	21.678	0.174	-0.183
-646.755	9.575	-0.205	0.201
-645.741	-200.000	0.023	-0.143
-644.726	-88.585	-0.331	-0.127
-643.711	-68.814	-0.300	0.149
-642.697	-200.000	-0.017	0.563
-641.682	-149.756	-0.550	-0.055
-640.668	-65.064	-0.426	-0.221
-639.653	-200.000	-0.029	-0.518
-638.638	437.983	-0.089	-0.253
-637.624	-63.075	0.118	-0.063
-636.609	258.898	-0.213	-0.476
-635.595	-173.983	0.093	0.003
-634.580	800.000	-0.044	-0.206
-633.565	-170.712	-0.384	0.017
-632.551	-87.995	0.369	0.143
-631.536	96.201	-0.019	-0.028
-630.522	21.515	-0.213	0.224
-629.507	-113.132	0.414	0.105
-628.492	-86.403	0.268	0.106
-627.478	-55.964	-0.144	-0.083
-626.463	-121.908	0.314	0.066
-625.449	-13.826	0.708	0.590
-624.434	-124.944	-0.178	-0.035
-623.419	21.400	-0.276	-0.290
-622.405	61.083	-0.232	0.298
-621.390	4.699	-0.148	-0.140
-620.376	73.486	0.164	0.223
-619.361	-174.140	-0.170	0.006
-618.346	-200.000	-0.018	0.217
-617.332	153.061	-0.361	0.640
-616.317	129.365	-0.028	-0.047
-615.303	-54.162	-0.331	-0.194
-614.288	-2.169	0.193	-0.175
-613.273	88.477	-0.179	-0.257
-612.259	-143.995	-0.403	0.048
-611.244	69.296	0.235	-0.313
-610.230	-200.000	0.031	-0.312
-609.215	154.897	0.313	-0.556
-608.201	14.043	-0.099	-0.099
-607.186	-200.000	-0.018	0.195
-606.171	-19.545	0.254	-0.203
-605.157	800.000	-0.047	0.245
-604.142	-200.000	-0.030	-0.243
-603.128	800.000	-0.032	0.158
-602.113	213.360	0.104	-0.212
-601.098	312.040	0.106	0.258
-600.084	-39.882	0.298	-0.200
-599.069	-118.538	0.193	0.044
-598.055	-200.000	-0.016	0.265
-597.040	-43.127	-0.032	-0.021
-596.025	800.000	-0.048	0.250
-595.011	544.257	-0.087	-0.269
-593.996	75.287	-0.123	0.168
-592.982	-35.890	-0.155	-0.108
-591.967	-161.180	-0.362	-0.024
-590.952	-124.288	-0.276	0.055
-589.938	11.783	0.467	0.462
-588.923	-200.000	-0.047	0.348
-587.909	30.218	-0.201	-0.222
-586.894	-68.927	-0.377	-0.187
-585.879	90.572	-0.082	0.119
-584.865	-119.632	0.706	-0.156
-583.850	274.294	0.172	0.395
-582.836	-112.389	-0.298	0.076
-581.821	-141.549	-0.364	-0.047
-580.806	199.091	0.045	0.089
-579.792	-126.136	-0.127	0.024
-578.777	709.714	0.096	-0.330
-577.763	140.933	0.145	-0.247
-576.748	-200.000	0.001	-0.113
-575.733	-25.787	0.245	0.186
-574.719	800.000	-0.189	-0.856
-573.704	265.801	-0.263	-0.595
-572.690	63.443	0.185	0.239
-571.675	-200.000	0.060	-0.386
-570.661	207.795	0.049	-0.100
-569.646	51.747	-0.149	0.183
-568.631	272.970	0.267	-0.609
-567.617	-72.266	0.052	0.025
-566.602	-2.484	0.474	-0.427
-565.588	-31.977	-0.400	-0.288
-564.573	-64.688	-0.248	0.129
-563.558	800.000	-0.117	-0.443
-562.544	183.252	0.115	-0.219
-561.529	-75.701	-0.300	-0.137
-560.515	71.701	-0.131	0.176
-559.500	-200.000	-0.030	0.172
-558.485	-54.232	-0.154	0.090
-557.471	530.362	-0.248	0.758
-556.456	94.203	0.205	0.301
-555.442	-200.000	-0.010	-0.242
-554.427	-35.621	-0.244	-0.170
-553.412	265.696	-0.138	0.312
-552.398	-150.473	0.234	-0.023
-551.383	-21.185	-0.384	0.302
-550.369	-42.678	0.231	-0.151
-549.354	-16.068	-0.123	-0.101
-548.339	51.420	0.382	0.467
-547.325	-30.027	0.185	0.135
-546.310	188.228	0.088	-0.171
-545.296	41.833	0.179	-0.209
-544.281	36.415	-0.269	-0.306
-543.266	-38.138	0.460	0.314
-542.252	-107.211	0.298	0.084
-541.237	-200.000	-0.017	-0.174
-540.223	83.499	-0.107	-0.151
-539.208	270.789	0.209	0.475
-538.193	78.572	0.254	0.351
-537.179	-68.976	0.121	-0.060
-536.164	800.000	-0.070	0.295
-535.150	-200.000	0.023	-0.228
-534.135	1.732	-0.133	0.124
-533.121	245.309	-0.265	0.575
-532.106	-92.047	0.227	0.082
-531.091	-143.933	-0.379	0.045
-530.077	4.414	-0.082	0.077
-529.062	-9.082	0.349	0.300
-528.048	-175.945	-0.215	-0.007
-527.033	53.671	0.373	-0.461
-526.018	800.000	0.040	-0.164
-525.004	-41.644	-0.333	-0.219
-523.989	37.103	0.141	0.161
-522.975	675.022	0.106	-0.358
-521.960	-16.079	-0.185	0.151
-520.945	-200.000	-0.024	0.176
-519.931	-6.462	-0.293	-0.257
-518.916	-173.665	0.303	0.011
-517.902	-149.483	-0.281	-0.028
-516.887	63.792	-0.204	-0.264
-515.872	198.201	-0.129	-0.254
-514.858	1.891	0.198	-0.184
-513.843	164.752	0.041	-0.075
-512.829	-13.486	0.018	0.015
-511.814	654.714	-0.148	-0.491
-510.799	95.028	0.073	-0.107
-509.785	-149.519	0.108	0.011
-508.770	-13.672	0.263	0.219
-507.756	-142.623	-0.578	-0.072
-506.741	414.449	-0.106	-0.291
-505.726	-91.712	-0.640	-0.233
-504.712	8.111	-0.434	-0.418
-503.697	-172.651	0.518	-0.021
-502.683	23.412	0.232	-0.246
-501.668	253.011	0.187	0.412
-500.653	191.452	-0.039	-0.077
-499.639	35.521	0.335	-0.378
-498.624	-135.547	0.499	-0.076
-497.610	-100.079	0.208	0.066
-496.595	-200.000	0.060	0.459
-495.581	23.502	0.408	0.431
-494.566	575.779	0.087	0.275
-493.551	-100.274	-0.360	0.114
-492.537	-30.413	0.132	0.096
-491.522	36.878	0.072	0.082
-490.508	-200.000	0.056	0.354
-489.493	135.702	-0.342	0.574
-488.478	12.907	-0.268	0.266
-487.464	-161.375	0.654	0.043
-486.449	743.204	0.109	0.379
-485.435	20.333	-0.173	0.180
-484.420	-88.094	0.276	0.106
-483.405	-165.035	0.229	0.013
-482.391	-59.671	-0.282	-0.155
-481.376	-75.700	0.666	0.302
-480.362	32.412	0.314	0.349
-479.347	112.367	0.247	0.384
-478.332	147.415	0.152	-0.263
-477.318	-200.000	0.020	-0.270
-476.303	-98.222	-0.365	0.120
-475.289	9.735	-0.269	-0.262
-474.274	-155.872	0.313	-0.025
-473.259	-55.402	0.235	-0.135
-472.245	354.966	-0.129	0.332
-471.230	248.068	0.201	-0.438
-470.216	-51.758	0.180	-0.107
-469.201	-200.000	0.034	-0.632
-468.186	480.441	-0.117	-0.342
-467.172	-136.539	0.813	-0.120
-466.157	4.331	-0.152	0.143
-465.143	58.296	-0.216	-0.272
-464.128	24.118	-0.229	0.242
-463.113	-141.051	0.232	0.030
-462.099	800.000	0.055	0.260
-461.084	353.133	0.105	-0.269
-460.070	-141.087	0.464	0.060
-459.055	800.000	-0.080	-0.402
-458.040	-200.000	0.007	-0.233
-457.026	30.045	0.367	0.401
-456.011	176.289	0.083	-0.156
-454.997	740.015	0.069	0.241
-453.982	-106.763	0.097	0.027
-452.968	-108.804	0.289	-0.079
-451.953	-110.823	0.561	0.147
-450.938	131.443	-0.168	-0.278
-449.924	34.409	-0.245	0.274
-448.909	-121.804	-0.269	-0.056
-447.895	219.055	-0.278	-0.573
-446.880	99.083	0.105	-0.157
-445.865	67.357	0.153	-0.201
-444.851	-200.000	-0.001	-0.558
-443.836	-200.000	-0.431	0.001
-442.822	-137.972	-0.502	-0.071
-441.807	-47.158	-0.225	0.140
-440.792	60.831	0.109	0.139
-439.778	-53.670	-0.179	0.105
-438.763	-52.923	0.310	0.183
-437.749	-13.103	0.275	0.229
-436.734	-200.000	0.005	-0.334
-435.719	127.692	-0.090	0.147
-434.705	-75.141	0.251	-0.114
-433.690	12.968	-0.176	0.175
-432.676	-194.986	0.255	-0.002
-431.661	-200.000	-0.035	-0.226
-430.646	-77.182	-0.357	0.158
-429.632	-167.823	-0.409	0.020
-428.617	-91.469	-0.195	-0.071
-427.603	265.211	0.131	-0.293
-426.588	532.233	0.144	-0.440
-425.573	-60.880	-0.166	0.090
-424.559	-151.116	-0.029	-0.003
-423.544	-111.680	-0.104	0.027
-422.530	226.295	-0.074	-0.155
-421.515	-33.264	-0.222	0.158
-420.500	148.402	-0.271	0.470
-419.486	-31.941	-0.307	0.220
-418.471	10.218	-0.218	0.213
-417.457	4.470	-0.299	-0.280
-416.442	-54.582	-0.293	0.170
-415.428	-12.381	-0.241	0.201
-414.413	-200.000	0.002	0.063
-413.398	412.079	0.070	-0.190
-412.384	140.031	-0.350	-0.592
-411.369	73.103	0.190	0.255
-410.355	-120.734	0.180	0.039
-409.340	-155.862	0.220	-0.018
-408.325	-3.103	0.028	0.025
-407.311	800.000	-0.091	0.397
-406.296	-148.011	-0.337	-0.035
-405.282	-200.000	0.011	0.230
-404.267	-200.000	-0.016	0.235
-403.252	-45.570	0.104	-0.066
-402.238	-200.000	0.003	-0.095
-401.223	-148.786	0.280	0.029
-400.209	-102.731	0.313	0.095
-399.194	-87.738	-0.320	-0.123
-398.179	55.311	-0.085	-0.105
-397.165	201.053	-0.160	-0.317
-396.150	163.712	-0.077	-0.140
-395.136	-115.735	-0.144	0.034
-394.121	-200.000	0.016	0.258
-393.106	-14.432	-0.246	-0.202
-392.092	265.615	0.093	0.208
-391.077	18.126	0.193	0.197
-390.063	166.010	0.086	-0.155
-389.048	800.000	-0.120	0.478
-388.033	-93.358	-0.031	-0.011
-387.019	-62.547	-0.223	-0.118
-386.004	800.000	-0.120	0.443
-384.990	72.709	-0.240	0.321
-383.975	203.712	0.266	0.528
-382.960	-141.568	-0.248	-0.032
-381.946	-108.229	-0.404	0.111
-380.931	800.000	0.070	0.267
-379.917	-88.228	0.406	-0.155
-378.902	-96.849	-0.342	-0.114
-377.888	-105.272	-0.466	0.135
-376.873	-195.053	0.250	0.002
-375.858	96.896	0.142	-0.208
-374.844	-55.073	-0.156	-0.090
-373.829	-7.524	-0.233	-0.201
-372.815	-97.400	-0.140	-0.046
-371.800	266.924	-0.069	-0.154
-370.785	-163.725	0.454	0.027
-369.771	800.000	-0.067	-0.295
-368.756	206.783	-0.206	0.412
-367.742	118.947	-0.262	0.415
-366.727	232.570	-0.052	-0.110
-365.712	-112.627	-0.210	-0.053
-364.698	129.513	0.046	-0.076
-363.683	-41.518	-0.172	-0.113
-362.669	-126.977	-0.166	-0.031
-361.654	-169.703	-0.189	0.009
-360.639	8.576	0.125	0.120
-359.625	-200.000	-0.039	-0.502
-358.610	-198.636	-0.483	-0.003
-357.596	-14.658	-0.332	-0.273
-356.581	800.000	-0.076	-0.335
-355.566	-200.000	0.025	0.245
-354.552	520.454	-0.029	-0.087
-353.537	-200.000	0.018	0.307
-352.523	4.503	-0.231	0.216
-351.508	15.609	0.271	0.272
-350.493	-54.306	0.349	0.202
-349.479	-159.613	0.517	0.036
-348.464	362.360	0.020	-0.052
-347.450	55.034	0.163	-0.202
-346.435	-132.592	-0.396	0.064
-345.420	30.492	0.117	0.128
-344.406	-190.926	0.321	-0.004
-343.391	32.127	0.081	-0.090
-342.377	-170.822	-0.296	0.013
-341.362	-106.221	0.018	-0.005
-340.348	-89.140	0.528	-0.198
-339.333	800.000	0.009	0.044
-338.318	291.475	-0.066	-0.153
-337.304	-200.000	0.019	-0.137
-336.289	-174.535	0.218	0.008
-335.275	-183.612	0.137	-0.003
-334.260	-163.689	0.341	-0.020
-333.245	-51.322	-0.069	0.041
-332.231	-22.844	-0.358	-0.275
-331.216	-124.106	-0.424	0.084
-330.202	-200.000	-0.033	-0.225
-329.187	-173.548	0.388	-0.015
-328.172	800.000	-0.053	0.236
-327.158	-132.931	-0.740	0.119
-326.143	-8.848	0.233	-0.200
-325.129	-132.867	0.491	-0.079
-324.114	9.648	0.304	0.294
-323.099	-90.348	0.296	0.109
-322.085	-75.115	0.319	0.145
-321.070	-46.382	-0.406	-0.254
-320.056	-24.737	-0.207	0.157
-319.041	5.429	-0.023	0.022
-318.026	-200.000	0.614	-0.002
-317.012	16.555	-0.443	-0.447
-315.997	-72.802	0.067	0.032
-314.983	-144.711	0.135	0.016
-313.968	-200.000	0.057	-0.450
-312.953	800.000	0.077	0.385
-311.939	-200.000	-0.074	0.444
-310.924	273.952	0.196	0.445
-309.910	31.847	0.037	-0.041
-308.895	-168.859	-0.252	0.012
-307.880	-69.924	0.378	0.183
-306.866	-21.210	0.259	0.201
-305.851	-200.000	-0.030	0.540
-304.837	-82.653	0.164	0.068
-303.822	-135.551	0.344	0.052
-302.807	-200.000	0.004	0.375
-301.793	566.581	0.029	0.090
-300.778	15.712	0.209	-0.210
-299.764	-90.417	0.130	-0.048
-298.749	-93.147	0.251	-0.088
-297.735	-47.058	0.183	-0.113
-296.720	-100.300	-0.493	0.155
-295.705	-19.424	0.226	0.178
-294.691	90.202	0.121	-0.173
-293.676	-75.917	0.469	0.211
-292.662	-35.584	-0.390	0.269
-291.647	-200.000	0.029	0.199
-290.632	-37.551	0.036	-0.024
-289.618	251.823	-0.274	-0.596
-288.603	800.000	0.084	0.323
-287.589	-200.000	0.029	-0.264
-286.574	-160.394	-0.239	0.016
-285.559	-116.232	0.044	0.010
-284.545	-30.338	0.123	0.089
-283.530	112.887	-0.152	0.235
-282.516	-200.000	0.012	-0.133
-281.501	-42.616	-0.464	0.301
-280.486	-200.000	0.019	-0.197
-279.472	-94.850	0.318	0.109
-278.457	39.080	-0.210	0.240
-277.443	800.000	-0.080	-0.433
-276.428	44.622	0.102	0.120
-275.413	240.163	-0.176	-0.375
-274.399	23.574	-0.101	0.106
-273.384	648.272	0.021	0.068
-272.370	50.389	0.330	0.398
-271.355	26.607	0.177	0.189
-270.340	-200.000	-0.011	-0.259
-269.326	-123.755	0.136	0.027
-268.311	-118.089	-0.840	-0.190
-267.297	19.309	-0.294	0.301
-266.282	12.142	0.282	0.276
-265.267	-52.923	0.243	-0.142
-264.253	111.074	0.049	-0.076
-263.238	-45.884	0.212	0.133
-262.224	-90.875	0.182	0.066
-261.209	168.974	-0.332	0.605
-260.195	20.783	0.054	-0.056
-259.180	-200.000	-0.022	-0.200
-258.165	-174.104	0.522	-0.019
-257.151	-104.337	-0.190	-0.056
-256.136	70.770	-0.233	-0.307
-255.122	219.001	-0.121	0.246
-254.107	-36.791	0.156	-0.107
-253.092	-126.056	0.729	-0.138
-252.078	-200.000	0.001	0.200
-251.063	20.931	-0.299	-0.309
-250.049	731.497	-0.074	0.254
-249.034	177.774	0.300	0.559
-248.019	-43.184	-0.360	0.232
-247.005	-200.000	-0.114	-0.643
-245.990	-100.954	-0.356	-0.111
-244.976	-90.901	0.167	-0.061
-243.961	-186.012	-0.151	-0.003
-242.946	57.867	0.104	-0.130
-241.932	800.000	-0.025	-0.112
-240.917	-68.765	-0.450	0.221
-239.903	178.647	0.172	-0.320
-238.888	111.399	0.343	-0.527
-237.873	56.294	0.352	0.435
-236.859	800.000	-0.027	-0.143
-235.844	337.438	0.054	0.134
-234.830	-200.000	-0.042	-0.306
-233.815	-24.804	-0.229	-0.173
-232.800	-77.463	0.360	0.158
-231.786	-167.062	-0.071	-0.004
-230.771	-77.942	-0.161	-0.070
-229.757	751.685	-0.173	0.597
-228.742	-200.000	0.041	-0.382
-227.727	-125.958	-0.400	0.076
-226.713	-171.777	0.267	-0.011
-225.698	-124.553	0.151	0.030
-224.684	44.362	0.152	-0.178
-223.669	44.070	0.192	-0.224
-222.655	-11.640	0.508	-0.424
-221.640	179.890	-0.311	-0.582
-220.625	234.571	-0.021	0.043
-219.611	-200.000	0.021	0.204
-218.596	-200.000	-0.005	-0.178
-217.582	-115.542	0.553	0.131
-216.567	61.821	0.443	-0.561
-215.552	-122.889	0.440	0.089
-214.538	-25.119	0.104	0.078
-213.523	-150.827	-0.403	0.038
-212.509	-174.909	-0.181	-0.006
-211.494	605.561	0.050	-0.160
-210.479	145.609	-0.210	-0.358
-209.465	-69.955	-0.395	0.190
-208.450	-51.446	-0.372	0.220
-207.436	68.170	-0.153	0.199
-206.421	-200.000	-0.019	-0.228
-205.406	-3.222	0.369	-0.326
-204.392	-164.644	-0.272	-0.015
-203.377	-162.861	0.113	-0.007
-202.363	35.301	0.233	0.260
-201.348	-55.862	-0.091	0.052
-200.333	-98.517	-0.157	-0.051
-199.319	94.863	-0.124	-0.180
-198.304	-200.000	-0.000	0.098
-197.290	143.555	-0.134	0.228
-196.275	293.403	0.023	0.054
-195.260	-68.164	-0.192	0.095
-194.246	-200.000	-0.002	0.074
-193.231	-200.000	-0.043	-0.478
-192.217	40.263	-0.320	-0.366
-191.202	-57.335	-0.268	0.149
-190.187	173.336	-0.298	-0.548
-189.173	-106.672	0.231	-0.065
-188.158	-118.209	0.119	-0.027
-187.144	264.812	-0.110	0.244
-186.129	-5.104	0.102	-0.089
-185.114	133.202	0.308	0.507
-184.100	-35.572	-0.216	-0.149
-183.085	-138.129	-0.336	-0.047
-182.071	-6.265	0.209	-0.181
-181.056	304.481	0.143	0.338
-180.042	-117.793	0.313	0.071
-179.027	-20.763	-0.339	0.263
-178.012	-108.751	-0.160	-0.043
-176.998	-99.640	0.296	0.094
-175.983	-78.643	-0.184	0.080
-174.969	-108.897	0.379	-0.102
-173.954	262.644	-0.108	0.238
-172.939	800.000	0.072	0.313
-171.925	-36.350	0.532	-0.363
-170.910	69.556	-0.127	0.166
-169.896	-101.215	-0.067	0.021
-168.881	-113.963	-0.080	-0.020
-167.866	123.509	0.126	-0.202
-166.852	127.185	-0.127	0.205
-165.837	37.766	0.075	0.085
-164.823	-51.699	0.383	0.226
-163.808	190.528	-0.182	0.348
-162.793	-22.524	-0.104	0.080
-161.779	800.000	0.033	-0.130
-160.764	17.780	0.163	-0.164
-159.750	96.972	0.304	-0.443
-158.735	-200.000	0.076	-0.652
-157.720	-33.192	-0.201	0.141
-156.706	71.249	-0.154	0.203
-155.691	17.897	0.087	-0.088
-154.677	-141.257	0.370	0.047
-153.662	-5.507	0.118	-0.103
-152.647	-169.683	-0.208	0.009
-151.633	800.000	-0.088	0.416
-150.618	800.000	-0.113	-0.514
-149.604	-109.288	-0.160	0.043
-148.589	-56.465	0.198	-0.111
-147.574	326.176	0.113	-0.275
-146.560	116.729	0.086	0.134
-145.545	217.782	0.052	-0.106
-144.531	165.062	0.192	0.345
-143.516	479.137	-0.123	-0.356
-142.502	-134.034	-0.611	-0.095
-141.487	-162.631	-0.154	-0.009
-140.472	163.825	-0.259	-0.464
-139.458	308.666	0.213	-0.507
-138.443	144.902	-0.148	-0.251
-137.429	60.592	0.086	-0.108
-136.414	-159.748	-0.351	-0.024
-135.399	-67.719	-0.607	0.300
-134.385	-157.653	-0.196	-0.015
-133.370	157.904	0.118	-0.207
-132.356	-20.196	0.170	-0.133
-131.341	554.267	-0.064	0.197
-130.326	-69.981	0.475	-0.228
-129.312	35.406	0.414	-0.460
-128.297	-176.290	0.472	0.015
-127.283	-131.374	0.456	0.076
-126.268	365.600	-0.106	0.273
-125.253	800.000	0.031	-0.139
-124.239	-200.000	0.013	-0.173
-123.224	-150.173	0.485	0.047
-122.210	-170.108	-0.413	-0.018
-121.195	-200.000	-0.004	0.201
-120.180	161.263	-0.055	-0.098
-119.166	800.000	-0.051	0.223
-118.151	119.351	0.176	-0.277
-117.137	800.000	0.113	-0.396
-116.122	-200.000	-0.034	-0.262
-115.107	-19.579	-0.225	0.176
-114.093	-144.738	-0.279	-0.032
-113.078	-200.000	-0.110	-0.000
-112.064	331.021	0.291	-0.713
-111.049	356.404	0.056	0.141
-110.034	75.790	-0.288	0.386
-109.020	-134.178	-0.405	0.063
-108.005	-132.640	0.302	-0.049
-106.991	-52.771	0.271	0.158
-105.976	31.816	0.028	-0.031
-104.962	-1.014	-0.165	0.147
-103.947	-128.453	0.260	0.046
-102.932	151.889	-0.188	0.325
-101.918	-54.283	-0.439	0.252
-100.903	-31.702	-0.445	-0.316
-99.889	800.000	0.028	0.119
-98.874	-80.635	0.127	0.053
-97.859	-200.000	0.005	0.109
-96.845	146.114	-0.305	0.520
-95.830	-200.000	0.026	0.165
-94.816	-19.633	0.256	-0.200
-93.801	-130.863	-0.376	0.063
-92.786	213.495	0.210	0.421
-91.772	-112.866	0.113	0.028
-90.757	-12.163	0.138	-0.114
-89.743	-57.866	-0.067	0.037
-88.728	-113.687	-0.070	-0.017
-87.713	59.852	-0.155	0.193
-86.699	-28.656	-0.259	-0.189
-85.684	-37.742	0.212	-0.142
-84.670	-158.089	-0.285	-0.021
-83.655	-95.741	0.228	-0.077
-82.640	142.422	0.085	-0.143
-81.626	-93.253	-0.479	-0.167
-80.611	257.152	-0.116	0.253
-79.597	-5.061	0.505	0.439
-78.582	-141.843	0.270	0.034
-77.567	504.908	-0.042	0.122
-76.553	-81.323	-0.434	0.180
-75.538	-41.026	-0.565	0.368
-74.524	-88.507	0.143	0.053
-73.509	18.626	0.080	-0.081
-72.494	-200.000	0.005	0.099
-71.480	671.253	0.124	0.408
-70.465	800.000	-0.162	0.839
-69.451	270.073	0.107	0.238
-68.436	307.195	0.091	0.216
-67.422	-81.980	-0.224	0.092
-66.407	-2.582	0.289	-0.256
-65.392	23.960	-0.287	0.299
-64.378	134.014	-0.188	0.309
-63.363	17.576	0.423	-0.425
-62.349	-78.656	0.117	-0.050
-61.334	-38.323	-2.221	-1.483
-60.319	-60.130	0.459	0.246
-59.305	237.080	-3.092	-6.496
-58.290	69.248	2.678	3.484
-57.276	510.290	3.554	10.498
-56.261	-200.000	15.344	236.730
-55.246	420.313	1211.801	3295.581
-54.232	57.816	2852.556	3528.458
-53.217	63.487	2728.966	3462.246
-52.203	40.108	2454.434	2787.851
-51.188	40.560	2101.899	2392.815
-50.173	36.774	1973.205	2203.010
-49.159	35.228	1962.002	2172.823
-48.144	34.878	1958.818	2165.230
-47.130	34.894	1955.603	2161.769
-46.115	34.762	1955.520	2160.084
-45.100	34.719	1954.318	2158.181
-44.086	34.685	1952.899	2156.153
-43.071	34.802	1951.128	2155.436
-42.057	34.772	1949.087	2152.749
-41.042	34.626	1947.718	2149.509
-40.027	34.736	1945.887	2148.644
-39.013	34.779	1944.082	2147.049
-37.998	34.753	1942.847	2145.309
-36.984	34.637	1942.616	2143.653
-35.969	34.628	1941.238	2141.951
-34.954	34.564	1939.446	2139.171
-33.940	34.659	1938.389	2138.982
-32.925	34.655	1937.281	2137.637
-31.911	34.540	1936.342	2135.225
-30.896	34.675	1934.660	2134.797
-29.881	34.696	1932.676	2132.755
-28.867	34.562	1931.616	2130.000
-27.852	34.522	1930.163	2127.869
-26.838	34.532	1928.524	2126.083
-25.823	34.537	1926.587	2123.919
-24.809	34.514	1926.692	2123.696
-23.794	34.529	1925.018	2121.939
-22.779	34.435	1923.716	2119.370
-21.765	34.522	1922.407	2118.806
-20.750	34.520	1920.311	2116.397
-19.736	34.508	1919.407	2115.177
-18.721	34.428	1918.033	2112.688
-17.706	34.360	1916.696	2110.373
-16.692	34.349	1914.904	2108.201
-15.677	34.402	1914.113	2107.827
-14.663	34.367	1913.012	2106.146
-13.648	34.300	1911.253	2103.382
-12.633	34.213	1910.283	2101.263
-11.619	34.323	1908.547	2100.497
-10.604	34.333	1907.884	2099.792
-9.590	34.237	1907.048	2097.728
-8.575	34.218	1905.741	2095.995
-7.560	34.372	1904.393	2096.134
-6.546	34.294	1903.559	2094.268
-5.531	34.196	1901.910	2091.284
-4.517	34.224	1901.163	2090.697
-3.502	34.196	1900.138	2089.172
-2.487	34.225	1899.252	2088.432
-1.473	34.289	1895.676	2085.129
-0.458	33.740	1873.851	2055.062
0.556	28.884	2005.718	2130.419
1.571	26.644	2217.518	2326.224
2.586	27.765	2261.450	2386.775
3.600	27.786	2265.513	2391.050
4.615	27.861	2265.053	2391.271
5.629	27.721	2262.988	2386.960
6.644	27.755	2260.036	2384.008
7.659	27.697	2259.286	2382.165
8.673	27.939	2257.448	2383.126
9.688	27.547	2262.578	2383.095
10.702	25.368	2338.526	2433.160
11.717	22.754	2403.176	2463.499
12.731	11.623	2375.177	2279.274
13.746	1.893	2348.870	2118.352
14.761	0.489	2343.395	2093.586
15.775	0.250	2342.390	2089.102
16.790	0.205	2340.398	2086.453
17.804	0.141	2339.057	2084.111
18.819	0.222	2337.890	2083.954
19.834	0.203	2336.235	2081.969
20.848	0.006	2336.458	2079.175
21.863	0.137	2333.587	2078.195
22.877	0.165	2331.902	2076.828
23.892	0.073	2329.921	2073.539
24.907	0.170	2327.493	2072.469
25.921	0.115	2325.782	2069.948
26.936	0.150	2323.367	2068.025
27.950	0.076	2321.464	2065.060
28.965	0.224	2317.476	2063.304
29.980	0.257	2316.047	2062.243
30.994	0.237	2315.411	2061.154
32.009	5.914	2334.887	2156.823
33.023	18.868	2371.837	2371.463
34.038	24.374	2383.678	2459.544
35.053	25.078	2382.237	2467.505
36.067	25.317	2380.013	2468.215
37.082	25.249	2378.360	2465.271
38.096	25.282	2376.313	2463.302
39.111	25.312	2374.273	2461.307
40.126	25.616	2372.515	2463.374
41.140	25.772	2371.199	2463.854
42.155	25.619	2368.149	2458.288
43.169	25.525	2366.201	2454.685
44.184	25.368	2363.585	2449.525
45.199	25.345	2361.186	2446.432
46.213	25.355	2359.536	2444.569
47.228	25.338	2358.815	2443.294
48.242	25.312	2356.276	2440.014
49.257	25.246	2355.030	2437.530
50.271	25.633	2353.553	2440.995
51.286	25.551	2351.211	2437.155
52.301	25.400	2349.607	2433.146
53.315	25.799	2350.495	2439.214
54.330	27.797	2355.413	2471.234
55.344	29.150	2356.500	2490.491
56.359	29.466	2352.732	2490.493
57.374	29.380	2351.416	2487.635
58.388	29.253	2348.174	2482.189
59.403	29.101	2344.967	2476.448
60.417	28.937	2341.407	2470.187
61.432	29.027	2340.205	2469.828
62.447	28.937	2337.907	2465.901
63.461	28.982	2335.883	2464.080
64.476	28.916	2334.121	2461.039
65.490	28.987	2332.916	2460.421
66.505	28.773	2329.891	2454.060
67.520	27.185	2323.715	2425.984
68.534	25.444	2317.312	2395.694
69.549	25.136	2312.510	2386.322
70.563	25.086	2310.326	2383.123
71.578	25.095	2308.170	2380.733
72.593	25.210	2306.866	2380.634
73.607	25.287	2305.617	2380.082
74.622	25.289	2303.589	2377.730
75.636	25.247	2300.578	2373.779
76.651	25.288	2298.458	2371.855
77.666	25.217	2296.802	2368.927
78.680	25.421	2293.412	2367.843
79.695	25.284	2292.901	2365.215
80.709	25.276	2292.896	2364.821
81.724	25.368	2290.935	2363.741
82.739	25.398	2287.000	2359.786
83.753	25.220	2285.202	2355.300
84.768	25.107	2283.570	2351.854
85.782	25.194	2282.384	2351.493
86.797	25.225	2280.229	2349.398
87.812	25.128	2278.480	2346.039
88.826	25.079	2275.834	2342.395
89.841	25.168	2273.548	2340.923
90.855	25.100	2272.302	2338.472
91.870	25.149	2270.494	2336.974
92.884	25.295	2268.156	2336.196
93.899	25.358	2267.918	2336.496
94.914	25.640	2269.415	2341.443
95.928	26.841	2273.651	2361.272
96.943	27.528	2272.114	2368.368
97.957	26.360	2264.059	2344.468
98.972	25.378	2259.455	2326.641
99.987	25.073	2256.245	2319.100
101.001	25.168	2253.587	2317.323
102.016	25.206	2252.024	2315.930
103.030	25.121	2249.713	2312.168
104.045	25.320	2246.970	2311.656
105.060	25.283	2245.037	2308.910
106.074	25.289	2243.263	2306.885
107.089	25.323	2241.721	2305.465
108.103	25.308	2241.211	2304.469
109.118	25.238	2239.996	2302.046
110.133	25.309	2238.288	2300.927
111.147	25.190	2235.010	2295.746
112.162	25.174	2233.650	2293.872
113.176	25.227	2231.520	2292.093
114.191	25.338	2229.737	2291.407
115.206	25.355	2227.083	2288.625
116.220	25.225	2226.125	2285.703
117.235	25.193	2224.777	2283.636
118.249	25.207	2222.530	2281.231
119.264	25.254	2221.029	2280.020
120.279	25.303	2219.275	2278.568
121.293	25.236	2217.403	2275.517
122.308	25.215	2215.565	2273.093
123.322	25.190	2214.431	2271.339
124.337	25.307	2214.430	2272.552
125.352	27.018	2219.017	2298.789
126.366	27.606	2217.913	2304.844
127.381	26.174	2209.704	2277.888
128.395	25.338	2205.852	2263.057
129.410	25.449	2203.091	2261.364
130.424	25.238	2202.319	2257.635
131.439	25.258	2200.717	2255.974
132.454	25.380	2198.878	2255.357
133.468	25.263	2197.653	2252.349
134.483	25.504	2195.056	2252.462
135.497	25.599	2193.841	2252.138
136.512	25.552	2192.129	2249.516
137.527	25.459	2190.121	2246.021
138.541	25.263	2188.127	2241.248
139.556	25.202	2188.886	2240.998
140.570	25.359	2186.107	2239.850
141.585	25.378	2183.123	2236.765
142.600	25.396	2182.955	2236.543
143.614	25.336	2180.792	2233.309
144.629	25.346	2178.383	2230.707
145.643	25.328	2177.301	2229.108
146.658	25.388	2174.843	2227.071
147.673	25.235	2172.589	2222.588
148.687	25.049	2172.307	2219.720
149.702	25.263	2171.122	2220.903
150.716	25.189	2170.794	2219.384
151.731	25.166	2168.275	2216.256
152.746	25.208	2167.459	2215.682
153.760	25.472	2168.263	2219.514
154.775	26.963	2172.830	2242.453
155.789	27.676	2171.062	2249.198
156.804	26.189	2163.836	2223.053
157.819	25.143	2157.876	2203.753
158.833	24.970	2155.256	2198.684
159.848	25.110	2154.106	2198.969
160.862	25.319	2152.222	2199.358
161.877	25.306	2151.492	2198.196
162.892	25.561	2150.299	2199.850
163.906	25.697	2149.738	2200.684
164.921	25.814	2146.779	2198.822
165.935	25.648	2144.933	2194.636
166.950	25.609	2143.791	2192.730
167.964	25.699	2141.931	2191.665
168.979	25.441	2139.827	2186.091
169.994	25.397	2138.357	2183.796
171.008	25.327	2135.635	2179.890
172.023	25.072	2134.410	2175.268
173.037	25.261	2133.230	2176.113
174.052	25.395	2131.653	2175.881
175.067	25.297	2130.453	2173.194
176.081	25.205	2128.942	2170.279
177.096	25.327	2127.985	2170.527
178.110	25.232	2126.527	2167.628
179.125	25.391	2124.182	2166.905
180.140	25.339	2123.706	2165.532
181.154	25.492	2122.072	2165.450
182.169	25.427	2121.120	2163.439
183.183	25.735	2121.235	2167.023
184.198	27.656	2124.948	2193.813
185.213	27.957	2122.907	2195.075
186.227	26.071	2115.357	2164.297
187.242	25.070	2112.938	2149.495
188.256	25.131	2109.892	2146.883
189.271	25.262	2108.507	2146.788
190.286	25.407	2106.461	2146.185
191.300	25.217	2105.131	2142.302
192.315	25.190	2104.324	2140.893
193.329	25.491	2102.494	2142.378
194.344	25.596	2101.329	2142.201
195.359	25.685	2100.674	2142.334
196.373	25.821	2098.069	2141.047
197.388	25.509	2096.299	2135.266
198.402	25.565	2093.738	2133.070
199.417	25.582	2091.862	2131.108
200.432	25.579	2089.985	2128.897
201.446	25.497	2089.118	2126.782
202.461	25.273	2086.856	2121.569
203.475	25.198	2084.640	2118.174
204.490	25.185	2082.730	2115.819
205.504	25.269	2080.579	2114.381
206.519	25.343	2078.354	2112.739
207.534	25.350	2077.247	2111.448
208.548	25.322	2075.633	2109.222
209.563	25.193	2074.782	2106.580
210.577	25.166	2074.450	2105.673
211.592	25.394	2072.828	2106.464
212.607	25.934	2073.714	2113.472
213.621	27.015	2077.161	2129.488
214.636	26.990	2073.146	2124.827
215.650	25.705	2068.798	2105.013
216.665	25.303	2065.404	2096.593
217.680	25.341	2063.595	2094.945
218.694	25.254	2062.306	2092.371
219.709	25.264	2060.861	2090.773
220.723	25.347	2059.640	2090.258
221.738	25.594	2057.609	2090.834
222.753	25.612	2055.272	2088.409
223.767	25.386	2054.423	2084.671
224.782	25.290	2052.816	2081.672
225.796	25.343	2051.262	2080.463
226.811	25.476	2049.817	2080.297
227.826	25.546	2049.317	2080.346
228.840	25.352	2046.354	2074.835
229.855	25.314	2044.748	2072.527
230.869	25.328	2044.010	2071.689
231.884	25.168	2041.259	2066.800
232.899	25.249	2040.081	2066.300
233.913	25.354	2039.466	2066.642
234.928	25.379	2038.412	2065.610
235.942	25.292	2037.148	2063.083
236.957	25.340	2033.952	2060.150
237.972	25.173	2034.094	2058.121
238.986	24.992	2032.100	2053.768
240.001	25.032	2029.550	2051.409
241.015	25.143	2029.013	2051.899
242.030	25.527	2030.492	2057.564
243.045	27.226	2033.832	2080.256
244.059	27.944	2031.405	2085.771
245.074	26.119	2025.061	2058.117
246.088	25.477	2020.369	2045.761
247.103	25.567	2019.249	2045.407
248.117	25.481	2017.549	2042.454
249.132	25.318	2016.504	2039.293
250.147	25.303	2014.054	2036.404
251.161	25.338	2012.748	2035.240
252.176	25.386	2011.476	2034.246
253.190	25.331	2008.451	2030.323
254.205	25.261	2006.729	2027.547
255.220	25.328	2005.885	2027.215
256.234	25.291	2004.561	2025.206
257.249	25.358	2002.893	2024.041
258.263	25.366	2002.898	2023.899
259.278	25.443	2002.337	2023.954
260.293	25.307	2000.490	2020.310
261.307	25.241	1998.242	2017.048
262.322	25.313	1995.981	2015.346
263.336	25.215	1994.672	2012.670
264.351	24.961	1992.892	2007.772
265.366	25.087	1991.526	2007.577
266.380	25.161	1990.147	2006.782
267.395	24.985	1988.441	2002.838
268.409	25.064	1987.179	2002.218
269.424	25.233	1986.338	2003.022
270.439	25.339	1985.040	2002.660
271.453	25.789	1986.683	2009.134
272.468	27.486	1989.487	2030.756
273.482	27.601	1986.144	2028.396
274.497	25.887	1978.489	2001.219
275.512	25.301	1974.944	1990.860
276.526	25.213	1973.207	1987.891
277.541	25.158	1970.613	1984.430
278.555	25.030	1969.844	1982.001
279.570	25.046	1968.282	1980.362
280.585	25.013	1967.381	1978.858
281.599	25.073	1965.428	1977.322
282.614	25.060	1964.494	1975.999
283.628	25.325	1964.009	1978.214
284.643	25.532	1963.030	1979.279
285.657	25.391	1961.994	1976.435
286.672	25.351	1959.506	1973.249
287.687	25.391	1957.301	1971.236
288.701	25.055	1956.597	1966.582
289.716	25.077	1954.497	1964.482
290.730	25.253	1953.193	1964.878
291.745	25.258	1952.127	1963.622
292.760	25.462	1951.636	1965.135
293.774	25.406	1950.720	1963.363
294.789	25.199	1949.332	1959.463
295.803	25.298	1947.730	1958.694
296.818	25.343	1946.319	1957.538
297.833	25.264	1944.355	1954.464
298.847	25.299	1943.189	1953.445
299.862	25.171	1942.062	1950.676
300.876	25.612	1942.273	1955.474
301.891	27.452	1946.189	1979.304
302.906	28.030	1943.986	1983.131
303.920	26.075	1937.750	1955.260
304.935	25.435	1933.831	1944.115
305.949	25.427	1932.450	1942.405
306.964	25.601	1931.092	1942.703
307.979	25.543	1928.369	1939.101
308.993	25.352	1926.440	1934.863
310.008	25.432	1925.014	1934.062
311.022	25.431	1924.354	1933.159
312.037	25.314	1922.214	1929.507
313.052	25.150	1921.146	1926.441
314.066	25.309	1918.827	1925.592
315.081	25.286	1917.868	1924.149
316.095	25.350	1917.370	1924.114
317.110	25.430	1914.879	1922.248
318.125	25.365	1913.536	1919.969
319.139	25.218	1912.761	1917.382
320.154	25.294	1910.590	1915.787
321.168	25.183	1908.307	1912.079
322.183	25.184	1908.175	1911.736
323.197	25.380	1907.449	1912.877
324.212	25.348	1905.114	1909.962
325.227	25.206	1903.826	1906.929
326.241	25.114	1902.178	1904.059
327.256	25.216	1900.068	1902.812
328.270	25.299	1899.225	1902.627
329.285	25.183	1899.377	1901.312
330.300	25.588	1901.808	1907.836
331.314	27.157	1904.704	1927.252
332.329	27.596	1900.290	1927.224
333.343	25.825	1893.805	1901.639
334.358	25.090	1890.688	1890.493
335.373	25.191	1889.333	1889.988
336.387	25.225	1888.008	1888.791
337.402	25.092	1886.756	1885.909
338.416	25.113	1885.044	1884.188
339.431	25.239	1883.776	1884.034
340.446	25.367	1881.875	1883.251
341.460	25.433	1880.440	1882.286
342.475	25.465	1879.647	1881.604
343.489	25.304	1877.356	1877.393
344.504	25.105	1877.156	1874.870
345.519	25.225	1874.746	1873.506
346.533	25.315	1872.649	1872.127
347.548	25.222	1871.880	1870.164
348.562	25.266	1871.230	1869.745
349.577	25.291	1869.999	1868.557
350.592	25.571	1868.633	1869.890
351.606	25.605	1867.459	1868.846
352.621	25.644	1865.382	1866.955
353.635	25.267	1864.889	1862.310
354.650	25.199	1863.754	1860.239
355.665	25.358	1861.745	1859.671
356.679	25.236	1860.842	1857.277
357.694	25.324	1859.154	1856.282
358.708	25.289	1858.003	1854.542
359.723	25.927	1859.942	1862.892
360.738	27.408	1862.340	1880.452
361.752	27.445	1859.025	1877.273
362.767	26.115	1852.490	1856.706
363.781	25.425	1850.499	1847.357
364.796	25.242	1848.835	1843.586
365.810	25.209	1848.168	1842.359
366.825	25.160	1846.863	1840.333
367.840	25.146	1845.310	1838.422
368.854	25.189	1844.092	1837.424
369.869	25.102	1842.172	1834.398
370.883	25.202	1840.271	1833.319
371.898	25.128	1839.445	1831.509
372.913	25.140	1837.842	1829.820
373.927	25.238	1836.374	1829.144
374.942	25.250	1836.056	1828.733
375.956	25.286	1834.143	1826.971
376.971	25.179	1832.413	1823.939
377.986	25.316	1830.896	1823.606
379.000	25.412	1829.805	1823.285
380.015	25.339	1828.809	1821.327
381.029	25.397	1826.721	1819.627
382.044	25.286	1825.211	1816.773
383.059	25.406	1823.793	1816.364
384.073	25.373	1822.362	1814.388
385.088	25.116	1821.928	1811.127
386.102	25.179	1820.888	1810.511
387.117	25.312	1818.634	1809.405
388.132	25.185	1818.092	1807.366
389.146	25.518	1820.439	1812.851
390.161	27.256	1822.486	1832.293
391.175	27.433	1817.293	1828.645
392.190	26.021	1810.468	1807.348
393.205	25.535	1808.299	1800.078
394.219	25.420	1807.082	1797.488
395.234	25.235	1805.910	1794.254
396.248	25.077	1802.689	1789.254
397.263	25.175	1800.112	1787.462
398.278	25.085	1799.055	1785.297
399.292	25.059	1798.219	1783.991
400.307	25.045	1798.190	1783.609
401.321	25.207	1796.856	1783.696
402.336	25.207	1795.966	1782.593
403.350	25.312	1794.344	1781.818
404.365	25.344	1792.415	1780.005
405.380	25.319	1790.622	1777.772
406.394	25.306	1789.706	1776.515
407.409	25.215	1787.882	1773.593
408.423	25.262	1785.882	1771.863
409.438	25.321	1785.574	1771.924
410.453	25.237	1785.467	1770.776
411.467	25.189	1784.115	1768.748
412.482	25.138	1781.773	1765.711
413.496	25.179	1781.274	1765.407
414.511	25.226	1779.462	1763.870
415.526	25.335	1777.391	1762.677
416.540	25.506	1776.534	1763.306
417.555	25.340	1776.011	1760.937
418.569	25.452	1775.975	1761.790
419.584	25.552	1775.237	1761.832
420.599	25.468	1774.788	1760.349
421.613	25.339	1772.711	1756.807
422.628	25.187	1771.222	1753.636
423.642	25.235	1769.087	1751.778
424.657	25.111	1767.815	1749.093
425.672	25.126	1766.128	1747.365
426.686	25.172	1765.432	1746.911
427.701	25.362	1764.610	1747.755
428.715	25.610	1763.610	1748.974
429.730	25.787	1762.512	1749.408
430.745	25.770	1760.657	1747.188
431.759	25.574	1759.186	1743.614
432.774	25.281	1758.575	1739.943
433.788	24.762	1756.849	1732.975
434.803	24.293	1755.009	1726.389
435.818	24.428	1753.757	1726.257
436.832	24.378	1753.127	1724.947
437.847	23.906	1747.655	1714.785
438.861	15.065	1722.254	1604.839
439.876	3.240	1699.400	1470.347
440.890	0.449	1693.539	1438.381
441.905	0.198	1693.003	1435.344
442.920	0.259	1691.252	1434.277
443.934	0.086	1690.200	1431.559
444.949	0.080	1688.853	1430.188
445.963	0.168	1688.271	1430.365
446.978	0.133	1687.450	1429.162
447.993	0.127	1686.115	1427.801
449.007	0.198	1683.495	1426.089
450.022	0.154	1681.820	1424.079
451.036	0.244	1680.887	1423.974
452.051	1.440	1687.051	1440.430
453.066	11.876	1710.513	1560.713
454.080	22.493	1727.427	1678.171
455.095	25.413	1733.488	1711.875
456.109	27.032	1737.192	1730.846
457.124	27.712	1736.121	1736.082
458.139	27.515	1734.545	1732.411
459.153	27.346	1733.346	1729.394
460.168	27.351	1730.973	1726.866
461.182	27.172	1729.221	1723.207
462.197	27.090	1727.381	1720.392
463.212	26.847	1725.058	1715.557
464.226	26.878	1723.931	1714.525
465.241	27.079	1724.230	1716.534
466.255	27.432	1723.068	1718.514
467.270	27.517	1722.147	1718.195
468.285	27.139	1720.381	1712.652
469.299	27.031	1719.622	1710.663
470.314	27.232	1717.350	1710.106
471.328	27.442	1715.839	1710.372
472.343	27.368	1715.213	1708.850
473.358	27.266	1713.982	1706.459
474.372	27.443	1711.674	1705.621
475.387	27.342	1710.336	1703.137
476.401	27.109	1709.164	1699.571
477.416	26.898	1707.988	1696.215
478.430	27.317	1706.767	1698.737
479.445	27.227	1705.050	1695.983
480.460	27.059	1703.353	1692.518
481.474	27.029	1702.700	1691.380
482.489	27.446	1702.883	1695.264
483.503	27.575	1701.566	1694.954
484.518	27.487	1700.060	1692.431
485.533	27.564	1698.645	1691.538
486.547	27.685	1697.108	1690.929
487.562	27.979	1697.477	1693.834
488.576	28.177	1696.288	1694.294
489.591	28.051	1694.203	1690.837
490.606	27.874	1692.303	1687.098
491.620	27.791	1691.180	1685.005
492.635	28.088	1689.507	1685.885
493.649	28.168	1688.395	1685.313
494.664	27.483	1685.711	1676.100
495.679	26.916	1683.564	1668.524
496.693	27.077	1683.016	1669.274
497.708	27.501	1682.826	1672.795
498.722	28.020	1682.252	1676.816
499.737	28.173	1681.058	1676.829
500.752	27.937	1678.506	1671.914
501.766	27.626	1676.815	1667.174
502.781	27.833	1675.485	1667.547
503.795	27.812	1673.771	1665.450
504.810	27.714	1673.577	1664.164
505.825	28.055	1673.489	1667.002
506.839	28.069	1671.674	1665.123
507.854	27.912	1669.953	1661.768
508.868	28.027	1668.265	1660.941
509.883	27.839	1667.578	1658.349
510.898	27.929	1666.465	1657.857
511.912	27.705	1664.563	1653.725
512.927	27.538	1662.321	1649.784
513.941	27.728	1661.292	1650.293
514.956	27.824	1660.868	1650.545
515.971	28.302	1660.279	1654.101
516.985	28.330	1659.214	1653.102
518.000	28.171	1658.094	1650.340
519.014	28.316	1657.438	1650.809
520.029	28.229	1655.577	1647.973
521.043	28.080	1653.703	1644.557
522.058	27.818	1652.798	1641.094
523.073	27.966	1651.655	1641.097
524.087	28.467	1651.546	1645.315
525.102	28.376	1649.223	1641.982
526.116	27.992	1647.315	1636.434
527.131	27.760	1646.665	1633.504
528.146	28.262	1647.004	1638.164
529.160	28.473	1646.333	1639.196
530.175	28.439	1645.248	1637.610
531.189	28.526	1644.546	1637.498
532.204	28.711	1642.664	1637.088
533.219	28.323	1639.277	1630.050
534.233	27.672	1638.337	1623.093
535.248	27.734	1637.801	1622.926
536.262	28.481	1637.869	1629.473
537.277	28.603	1637.504	1630.001
538.292	28.531	1635.243	1626.919
539.306	28.480	1633.054	1624.086
540.321	28.484	1631.979	1622.860
541.335	28.096	1630.682	1617.927
542.350	28.500	1629.178	1619.829
543.365	28.890	1628.323	1622.249
544.379	29.011	1627.174	1621.975
545.394	29.199	1626.141	1622.423
546.408	28.373	1623.328	1612.119
547.423	27.720	1621.024	1603.868
548.438	27.712	1620.633	1603.218
549.452	28.039	1619.384	1604.676
550.467	28.060	1618.608	1603.903
551.481	28.199	1617.360	1603.699
552.496	28.654	1617.574	1607.725
553.511	28.944	1617.417	1609.925
554.525	28.890	1616.240	1608.087
555.540	28.951	1614.896	1607.091
556.554	28.978	1613.782	1606.031
557.569	28.789	1612.226	1602.635
558.583	28.545	1610.601	1598.687
559.598	28.554	1609.321	1597.309
560.613	28.610	1608.136	1596.431
561.627	28.791	1606.523	1596.219
562.642	28.733	1605.631	1594.628
563.656	28.971	1604.837	1595.729
564.671	28.919	1603.790	1594.039
565.686	29.102	1601.776	1593.446
566.700	28.735	1599.944	1588.241
567.715	28.648	1598.730	1586.093
568.729	28.685	1598.069	1585.569
569.744	28.916	1596.420	1585.740
570.759	28.984	1595.525	1585.255
571.773	28.921	1595.111	1584.108
572.788	29.160	1594.518	1585.394
573.802	28.996	1591.957	1581.240
574.817	28.885	1590.902	1579.049
575.832	29.046	1589.431	1578.790
576.846	29.098	1588.363	1577.983
577.861	29.005	1586.054	1574.705
578.875	28.939	1586.061	1573.950
579.890	29.297	1585.927	1576.709
580.905	29.332	1584.954	1575.858
581.919	29.599	1584.158	1577.166
582.934	29.629	1583.582	1576.659
583.948	29.608	1582.343	1575.056
584.963	29.306	1580.272	1570.225
585.978	28.826	1578.339	1564.006
586.992	28.827	1577.105	1562.607
588.007	29.324	1577.762	1567.316
589.021	28.885	1575.334	1560.976
590.036	28.239	1572.774	1552.744
591.051	28.831	1572.616	1557.452
592.065	29.292	1572.043	1560.616
593.080	29.741	1570.930	1563.145
594.094	29.623	1569.593	1560.624
595.109	28.864	1565.875	1550.309
596.123	28.369	1564.430	1544.500
597.138	28.797	1564.361	1547.869
598.153	29.065	1563.437	1549.044
599.167	29.005	1561.822	1546.749
600.182	28.822	1561.176	1544.380
601.196	29.163	1559.808	1545.717
602.211	29.160	1559.124	1544.828
603.226	29.561	1557.763	1546.673
604.240	29.514	1557.359	1545.690
605.255	29.680	1556.326	1545.876
606.269	29.705	1555.353	1544.931
607.284	29.529	1554.260	1542.185
608.299	29.652	1551.864	1540.652
609.313	29.369	1550.887	1537.129
610.328	29.413	1549.177	1535.619
611.342	29.484	1548.717	1535.570
612.357	29.598	1547.956	1535.586
613.372	29.742	1545.888	1534.551
614.386	29.586	1544.636	1531.828
615.401	29.482	1545.031	1531.166
616.415	29.595	1544.088	1530.994
617.430	29.575	1542.947	1529.513
618.445	29.605	1541.705	1528.342
619.459	29.584	1540.584	1526.875
620.474	29.514	1539.356	1524.893
621.488	29.253	1538.442	1521.645
622.503	29.163	1537.417	1519.701
623.518	29.600	1536.402	1522.132
624.532	29.765	1536.245	1523.167
625.547	29.766	1534.458	1521.216
626.561	29.744	1533.631	1520.036
627.576	29.926	1532.714	1520.444
628.591	29.839	1531.490	1518.331
629.605	29.955	1529.878	1517.508
630.620	30.164	1528.117	1517.296
631.634	29.760	1526.804	1512.494
632.649	29.880	1526.928	1513.418
633.663	30.172	1526.359	1515.077
634.678	30.220	1524.850	1513.787
635.693	30.213	1523.048	1511.764
636.707	30.105	1521.409	1509.067
637.722	30.071	1520.534	1507.745
638.736	30.051	1519.288	1506.162
639.751	30.224	1517.428	1505.554
640.766	30.064	1515.959	1502.612
641.780	30.031	1515.019	1501.231
642.795	29.887	1513.814	1498.681
643.809	30.004	1513.300	1498.950
644.824	30.038	1512.589	1498.340
645.839	30.090	1511.196	1497.206
646.853	30.098	1510.112	1496.016
647.868	29.854	1509.204	1492.955
648.882	29.736	1507.168	1489.809
649.897	29.560	1505.769	1486.822
650.912	29.693	1504.877	1486.839
651.926	30.007	1503.483	1487.820
652.941	29.941	1501.946	1485.593
653.955	29.553	1499.808	1480.172
654.970	28.787	1497.840	1471.887
655.985	28.784	1495.863	1469.740
656.999	28.925	1494.927	1469.779
658.014	29.110	1495.055	1471.219
659.028	29.696	1494.701	1475.398
660.043	29.892	1494.329	1476.427
661.058	30.152	1492.932	1476.946
662.072	30.192	1491.501	1475.678
663.087	29.734	1490.858	1471.199
664.101	29.544	1489.356	1468.023
665.116	29.744	1488.209	1468.315
666.131	29.981	1487.739	1469.567
667.145	29.873	1487.100	1467.894
668.160	30.034	1485.560	1467.487
669.174	30.210	1484.280	1467.441
670.189	30.260	1482.769	1466.171
671.204	30.187	1482.030	1464.686
672.218	30.127	1481.550	1463.556
673.233	30.311	1480.836	1464.142
674.247	30.489	1479.219	1463.775
675.262	30.547	1478.253	1463.100
676.276	30.421	1476.537	1460.237
677.291	30.326	1475.887	1458.668
678.306	29.964	1474.156	1453.925
679.320	30.024	1473.344	1453.420
680.335	30.137	1472.879	1453.676
681.349	30.263	1472.366	1453.991
682.364	30.139	1471.584	1452.068
683.379	30.095	1469.724	1449.716
684.393	30.114	1467.953	1447.944
685.408	30.129	1467.043	1446.986
686.422	30.039	1465.881	1444.965
687.437	30.015	1466.001	1444.722
688.452	30.169	1465.002	1444.772
689.466	30.141	1463.237	1442.642
690.481	30.325	1461.793	1442.483
691.495	30.385	1461.173	1442.164
692.510	30.485	1459.458	1441.077
693.525	30.126	1457.733	1436.404
694.539	30.227	1457.631	1436.918
695.554	30.311	1457.404	1437.176
696.568	30.406	1456.420	1436.778
697.583	30.209	1455.128	1433.797
698.598	30.254	1454.122	1432.987
699.612	30.375	1452.780	1432.427
700.627	30.295	1451.865	1430.731
701.641	30.369	1450.880	1430.163
702.656	30.329	1449.832	1428.650
703.671	30.656	1448.919	1430.108
704.685	30.525	1448.689	1428.696
705.700	30.463	1447.228	1426.611
706.714	30.185	1444.981	1422.082
707.729	29.989	1443.371	1418.818
708.744	30.176	1442.584	1419.315
709.758	30.211	1441.061	1417.912
710.773	29.837	1439.042	1412.888
711.787	29.435	1438.111	1408.716
712.802	30.019	1437.459	1412.392
713.816	30.312	1436.435	1413.454
714.831	30.414	1436.205	1413.844
715.846	30.551	1435.205	1413.732
716.860	30.565	1434.200	1412.685
717.875	30.294	1432.557	1408.827
718.889	30.222	1431.296	1406.872
719.904	30.249	1429.779	1405.417
720.919	30.452	1428.706	1405.735
721.933	30.450	1428.289	1405.141
722.948	30.412	1427.546	1403.957
723.962	30.438	1426.217	1402.677
724.977	30.424	1425.578	1401.779
725.992	30.508	1424.810	1401.492
727.006	30.558	1423.417	1400.333
728.021	30.409	1421.887	1397.529
729.035	30.704	1420.045	1397.784
730.050	30.660	1419.222	1396.475
731.065	30.526	1418.558	1394.644
732.079	30.534	1417.148	1393.145
733.094	30.668	1416.096	1392.958
734.108	30.455	1414.916	1390.028
735.123	30.535	1413.746	1389.308
736.138	30.561	1411.936	1387.562
737.152	30.529	1410.872	1386.111
738.167	30.674	1410.314	1386.485
739.181	30.649	1410.150	1385.969
740.196	30.684	1408.971	1384.904
741.211	30.634	1407.966	1383.374
742.225	30.573	1407.358	1382.161
743.240	30.575	1405.614	1380.298
744.254	30.642	1404.159	1379.204
745.269	30.404	1403.506	1376.617
746.284	30.303	1402.778	1374.992
747.298	30.361	1401.115	1373.625
748.313	30.595	1399.804	1373.918
749.327	30.616	1399.892	1373.991
750.342	30.424	1399.095	1371.618
751.356	30.287	1396.850	1368.243
752.371	30.183	1395.793	1366.269
753.386	30.458	1395.003	1367.373
754.400	30.406	1394.267	1366.098
755.415	30.610	1393.387	1366.578
756.429	30.833	1391.571	1366.278
757.444	30.753	1390.079	1364.064
758.459	30.843	1389.545	1364.043
759.473	30.654	1388.654	1361.612
760.488	30.604	1387.604	1360.050
761.502	30.506	1386.305	1357.893
762.517	30.616	1385.088	1357.349
763.532	30.754	1383.597	1356.735
764.546	30.547	1382.682	1354.160
765.561	30.120	1381.308	1349.527
766.575	29.250	1379.505	1341.245
767.590	29.225	1378.395	1339.822
768.605	30.141	1377.978	1345.942
769.619	30.559	1377.602	1348.468
770.634	30.533	1376.668	1347.201
771.648	30.472	1375.544	1345.492
772.663	30.514	1374.611	1344.728
773.678	30.542	1374.453	1344.614
774.692	30.727	1373.543	1344.907
775.707	30.672	1372.761	1343.584
776.721	30.752	1372.111	1343.363
777.736	30.702	1370.785	1341.546
778.751	30.655	1369.511	1339.797
779.765	30.656	1368.646	1338.794
780.780	30.703	1367.555	1337.908
781.794	30.726	1366.703	1337.079
782.809	30.510	1365.764	1334.440
783.824	30.443	1363.953	1332.028
784.838	30.373	1362.568	1330.015
785.853	30.335	1362.107	1329.134
786.867	30.485	1361.831	1329.780
787.882	30.625	1361.696	1330.499
788.897	30.504	1360.682	1328.480
789.911	30.450	1358.952	1326.243
790.926	30.240	1357.609	1323.268
791.940	30.367	1355.885	1322.342
792.955	30.399	1354.633	1321.191
793.969	30.400	1354.588	1320.993
794.984	30.248	1353.786	1318.964
795.999	30.650	1352.799	1320.719
797.013	30.777	1350.812	1319.526
798.028	30.655	1348.919	1316.651
799.042	30.560	1348.809	1315.711
800.057	30.765	1347.954	1316.174
801.072	30.820	1345.627	1314.134
802.086	30.808	1344.928	1313.213
803.101	30.586	1343.584	1310.171
804.115	30.761	1342.932	1310.617
805.130	30.720	1341.977	1309.233
806.145	30.623	1340.402	1306.860
807.159	30.606	1339.268	1305.474
808.174	30.541	1338.580	1304.191
809.188	30.605	1337.209	1303.149
810.203	30.537	1335.609	1300.955
811.218	30.416	1333.744	1298.134
812.232	30.063	1332.229	1294.023
813.247	29.635	1331.247	1289.914
814.261	30.161	1331.191	1293.393
815.276	30.475	1330.925	1295.183
816.291	30.436	1329.721	1293.582
817.305	30.236	1329.182	1291.503
818.320	30.375	1327.823	1291.002
819.334	30.492	1326.679	1290.550
820.349	30.654	1325.004	1289.898
821.364	30.626	1323.517	1288.099
822.378	30.735	1321.755	1286.986
823.393	30.700	1320.274	1285.146
824.407	30.652	1319.546	1283.956
825.422	30.626	1319.280	1283.358
826.437	30.464	1318.402	1281.230
827.451	30.417	1316.788	1279.186
828.466	30.330	1315.841	1277.509
829.480	30.555	1314.174	1277.288
830.495	30.624	1311.692	1275.202
831.509	30.315	1311.093	1272.335
832.524	30.299	1310.467	1271.466
833.539	30.469	1309.421	1271.467
834.553	30.502	1308.356	1270.509
835.568	30.391	1307.192	1268.463
836.582	30.490	1306.158	1267.986
837.597	30.514	1304.389	1266.283
838.612	30.638	1302.676	1265.319
839.626	30.520	1302.021	1263.722
840.641	30.424	1301.087	1262.013
841.655	30.318	1299.988	1260.069
842.670	29.875	1297.963	1254.935
843.685	29.240	1296.332	1248.887
844.699	29.788	1296.704	1252.829
845.714	30.163	1296.109	1254.654
846.728	30.302	1295.137	1254.507
847.743	29.964	1294.472	1251.418
848.758	30.240	1292.970	1251.692
849.772	30.531	1291.235	1251.829
850.787	30.396	1290.436	1249.990
851.801	30.435	1289.652	1249.347
852.816	30.563	1287.870	1248.333
853.831	30.410	1287.282	1246.581
854.845	30.356	1285.851	1244.685
855.860	30.488	1283.302	1242.957
856.874	30.242	1282.397	1240.275
857.889	30.426	1281.746	1240.732
858.904	30.573	1280.362	1240.232
859.918	30.563	1279.031	1238.728
860.933	30.362	1278.007	1236.244
861.947	30.477	1276.765	1235.661
862.962	30.135	1275.864	1232.354
863.977	30.282	1274.345	1231.721
864.991	30.307	1273.348	1230.780
866.006	30.142	1273.396	1229.580
867.020	30.435	1271.809	1229.851
868.035	30.422	1271.065	1228.894
869.049	30.231	1270.644	1227.069
870.064	30.366	1269.570	1226.783
871.079	30.490	1268.270	1226.202
872.093	30.205	1267.852	1223.762
873.108	30.259	1266.262	1222.440
874.122	30.019	1265.056	1219.540
875.137	29.877	1264.555	1217.971
876.152	29.868	1263.197	1216.457
877.166	29.771	1261.524	1214.063
878.181	29.894	1259.997	1213.258
879.195	30.057	1259.197	1213.418
880.210	30.098	1259.055	1213.404
881.225	30.234	1258.371	1213.493
882.239	30.266	1256.843	1212.088
883.254	30.277	1255.738	1210.946
884.268	30.237	1255.416	1210.230
885.283	30.283	1253.670	1208.699
886.298	30.211	1252.786	1207.236
887.312	30.147	1251.786	1205.711
888.327	30.109	1250.548	1204.123
889.341	30.162	1249.324	1203.147
890.356	30.095	1248.511	1201.780
891.371	30.055	1248.419	1201.290
892.385	29.904	1248.230	1199.977
893.400	30.031	1246.969	1199.452
894.414	30.046	1244.860	1197.377
895.429	30.086	1243.784	1196.454
896.444	30.202	1241.642	1195.005
897.458	30.007	1240.831	1192.821
898.473	30.111	1240.457	1192.991
899.487	30.158	1239.149	1191.890
900.502	30.001	1237.803	1189.443
901.517	29.930	1236.849	1187.924
902.531	29.903	1236.244	1187.028
903.546	29.980	1235.148	1186.329
904.560	30.044	1234.957	1186.414
905.575	30.042	1233.757	1185.107
906.589	29.925	1232.517	1183.026
907.604	29.789	1231.847	1181.363
