DTS Sentinel unit serial number:	SN409020Multiplexer serial number:	ORYXHardware model number:	OX4-SRSoftware version number:	ORYX F/W v3.00 Oryx Data Collector v3.7.2.0data status	okinstallation	HaddamTimeLapsedifferential loss correction	single-endedforward channel	channel 3reverse channel	N/Adate	2011/06/21time	18:06:17forward acquisition time	30.00reverse acquisition time	0.00gamma	498.7831k internal	0.1836k external	0.1836temperature offset calibration	1.0074default loss term (dB/km)	0.3790temperature slope calibration	1.3530multiplexer offset coefficient	1.0000multiplexer slope coefficient	1.0000fibre end	0.00T internal ref (°C)	36.41T ext. ref 1 (°C)	29.12T ext. ref 2 (°C)	0.27length (m)	temperature (°C)	Stokes	anti-Stokes-747.200	-200.000	-0.011	-0.200
-746.185	-150.589	0.709	0.068
-745.171	39.781	-0.333	-0.379
-744.156	-200.000	-0.002	0.936
-743.142	-143.527	-0.273	0.033
-742.127	-200.000	0.018	0.552
-741.112	-89.766	0.204	0.075
-740.098	-200.000	0.044	0.426
-739.083	-26.444	-0.356	0.264
-738.069	152.958	0.211	0.366
-737.054	-167.727	-0.127	0.006
-736.039	778.103	0.049	-0.171
-735.025	-5.632	0.360	-0.312
-734.010	-139.603	0.767	0.102
-732.996	-200.000	-0.026	0.235
-731.981	-140.207	-0.561	-0.074
-730.966	-62.881	0.302	0.158
-729.952	100.738	-0.102	-0.151
-728.937	160.178	0.058	0.102
-727.923	48.604	-0.418	-0.496
-726.908	18.403	-0.053	-0.053
-725.894	53.661	0.193	0.235
-724.879	78.577	-0.167	0.226
-723.864	704.794	-0.092	-0.309
-722.850	-15.414	-0.196	-0.158
-721.835	-31.432	-0.183	-0.130
-720.821	800.000	-0.081	-0.295
-719.806	-80.915	0.335	0.140
-718.791	549.512	0.015	-0.046
-717.777	116.108	0.044	-0.068
-716.762	-74.111	-0.284	0.129
-715.748	361.415	-0.135	0.343
-714.733	122.799	-0.302	-0.480
-713.718	353.029	-0.201	0.508
-712.704	-139.550	0.455	-0.061
-711.689	-200.000	-0.010	-0.289
-710.675	-200.000	-0.035	-0.611
-709.660	-158.454	-0.671	-0.048
-708.645	360.068	-0.006	0.016
-707.631	-200.000	-0.004	0.139
-706.616	800.000	0.044	0.237
-705.602	-189.977	-0.164	0.002
-704.587	-40.363	0.476	-0.312
-703.572	120.194	0.178	-0.280
-702.558	-104.625	-0.385	-0.112
-701.543	-136.392	0.238	0.035
-700.529	494.612	-0.106	-0.309
-699.514	-200.000	0.099	0.560
-698.499	29.823	-0.245	-0.263
-697.485	-142.007	0.330	0.041
-696.470	-151.288	-0.230	-0.021
-695.456	-85.506	-0.344	0.135
-694.441	800.000	0.072	-0.308
-693.426	25.955	0.259	-0.273
-692.412	-4.394	-0.329	0.288
-691.397	800.000	0.112	-0.554
-690.383	-74.787	0.304	-0.137
-689.368	215.371	-0.304	-0.612
-688.354	-200.000	-0.011	-0.264
-687.339	225.613	0.086	-0.178
-686.324	-135.697	0.094	-0.014
-685.310	17.821	0.151	-0.152
-684.295	-200.000	-0.013	-0.513
-683.281	800.000	0.132	-0.655
-682.266	-52.914	0.198	0.115
-681.251	-200.000	-0.001	-0.105
-680.237	-38.984	-0.245	-0.163
-679.222	56.375	-0.078	-0.096
-678.208	-200.000	0.061	0.369
-677.193	422.009	0.100	-0.274
-676.178	511.860	0.079	0.235
-675.164	89.312	-0.262	-0.370
-674.149	-78.245	0.474	-0.205
-673.135	-39.906	-0.136	0.089
-672.120	-193.220	0.288	-0.003
-671.105	-103.454	0.298	-0.088
-670.091	-200.000	-0.013	0.362
-669.076	-152.888	-0.409	0.036
-668.062	269.249	-0.164	0.364
-667.047	-171.861	0.135	-0.005
-666.032	-138.155	-0.216	-0.030
-665.018	275.906	-0.014	-0.030
-664.003	800.000	0.040	0.208
-662.989	58.378	-0.066	0.082
-661.974	10.673	0.169	0.163
-660.959	-200.000	0.039	-0.436
-659.945	800.000	-0.056	-0.207
-658.930	-48.519	0.454	0.275
-657.916	-102.694	-0.521	-0.156
-656.901	-45.572	-0.211	0.132
-655.886	-200.000	-0.002	-0.029
-654.872	-140.580	-0.147	0.019
-653.857	281.631	0.103	-0.233
-652.843	-122.881	0.145	-0.029
-651.828	222.930	-0.182	-0.371
-650.814	-200.000	-0.040	-0.320
-649.799	57.554	0.069	0.085
-648.784	193.030	0.230	-0.440
-647.770	-143.235	-0.082	-0.010
-646.755	800.000	0.054	0.251
-645.741	-78.115	-0.387	-0.167
-644.726	-200.000	-0.042	0.598
-643.711	-107.018	0.300	-0.083
-642.697	800.000	0.110	0.570
-641.682	774.899	0.118	-0.408
-640.668	-44.923	-0.156	0.097
-639.653	-200.000	-0.027	0.312
-638.638	254.987	0.155	0.337
-637.624	342.915	-0.196	0.487
-636.609	15.190	-0.247	0.244
-635.595	-33.676	-0.125	-0.087
-634.580	-109.839	-0.212	-0.056
-633.565	21.309	0.341	-0.349
-632.551	-70.557	0.174	-0.083
-631.536	77.353	0.211	-0.283
-630.522	-200.000	-0.000	0.170
-629.507	99.317	0.366	0.534
-628.492	-95.003	0.232	-0.079
-627.478	800.000	-0.049	0.189
-626.463	-154.673	0.233	0.019
-625.449	-175.864	0.419	-0.014
-624.434	800.000	-0.070	0.284
-623.419	-116.845	-0.412	0.094
-622.405	-130.629	0.484	0.082
-621.390	-200.000	0.003	0.619
-620.376	199.369	-0.039	0.076
-619.361	494.752	0.141	0.410
-618.346	-121.537	-0.171	0.035
-617.332	800.000	0.036	0.191
-616.317	-200.000	0.083	-0.564
-615.303	52.439	0.154	-0.185
-614.288	-2.772	-0.317	-0.279
-613.273	-40.475	-0.390	0.254
-612.259	-48.037	-0.369	0.224
-611.244	63.125	-0.192	0.243
-610.230	-143.919	-0.265	0.031
-609.215	550.238	0.079	0.241
-608.201	800.000	0.054	0.296
-607.186	-200.000	0.008	-0.167
-606.171	320.717	-0.042	0.100
-605.157	206.531	0.135	0.265
-604.142	-68.757	-0.086	0.042
-603.128	208.883	-0.038	-0.074
-602.113	80.881	-0.220	-0.299
-601.098	165.611	0.024	-0.042
-600.084	40.794	0.212	-0.240
-599.069	-177.052	0.180	0.006
-598.055	-200.000	-0.040	0.264
-597.040	69.120	-0.271	-0.351
-596.025	-200.000	-0.007	-0.872
-595.011	-200.000	-0.020	-0.153
-593.996	80.066	0.121	-0.164
-592.982	-96.197	0.514	-0.171
-591.967	-148.120	-0.371	-0.038
-590.952	96.990	0.059	-0.085
-589.938	800.000	-0.029	-0.156
-588.923	800.000	-0.056	-0.203
-587.909	321.441	0.197	0.473
-586.894	136.574	-0.148	-0.244
-585.879	-111.327	-0.333	-0.085
-584.865	13.726	0.130	0.127
-583.850	145.878	0.074	-0.125
-582.836	-90.852	0.410	0.148
-581.821	57.197	0.284	-0.349
-580.806	-78.224	-0.156	-0.067
-579.792	-43.486	-0.248	-0.157
-578.777	-54.759	-0.343	0.194
-577.763	-38.081	-0.347	-0.231
-576.748	54.165	-0.246	-0.298
-575.733	42.094	0.152	0.174
-574.719	800.000	0.021	0.091
-573.704	53.278	-0.325	-0.392
-572.690	-42.317	-0.402	-0.258
-571.675	148.947	0.212	-0.362
-570.661	-99.934	-0.746	0.233
-569.646	66.665	-0.033	0.042
-568.631	-2.059	-0.096	-0.085
-567.617	800.000	-0.190	0.754
-566.602	-12.192	-0.053	0.044
-565.588	-174.361	0.147	0.005
-564.573	102.263	0.126	0.185
-563.558	-91.629	0.200	0.071
-562.544	-81.882	0.177	0.073
-561.529	6.392	0.468	-0.437
-560.515	-60.428	0.220	-0.117
-559.500	-62.863	-0.191	-0.099
-558.485	-86.919	-0.337	0.128
-557.471	-10.904	0.440	-0.365
-556.456	510.116	-0.102	-0.300
-555.442	-70.253	0.094	0.045
-554.427	-200.000	0.009	0.070
-553.412	-85.209	-0.487	-0.191
-552.398	-200.000	0.017	-0.223
-551.383	-200.000	-0.004	-0.072
-550.369	-5.060	-0.309	0.267
-549.354	-87.939	-0.219	-0.082
-548.339	141.421	0.074	-0.124
-547.325	-68.757	-0.382	-0.185
-546.310	-116.597	-0.491	-0.113
-545.296	-14.802	0.236	-0.190
-544.281	-200.000	0.005	-0.379
-543.266	103.495	-0.257	-0.379
-542.252	-22.833	-0.363	-0.275
-541.237	-164.440	0.251	-0.014
-540.223	39.243	0.371	0.417
-539.208	-200.000	0.049	0.499
-538.193	-19.214	-0.044	-0.034
-537.179	-200.000	-0.023	0.295
-536.164	-121.427	-0.365	-0.076
-535.150	-200.000	-0.040	-0.304
-534.135	-51.643	-0.182	-0.106
-533.121	800.000	0.046	0.201
-532.106	-141.743	0.133	0.017
-531.091	-22.464	-0.238	0.181
-530.077	-93.560	0.278	-0.096
-529.062	-51.411	0.182	-0.106
-528.048	-95.650	-0.038	-0.013
-527.033	-200.000	0.075	0.449
-526.018	-148.898	-0.163	0.016
-525.004	43.604	-0.196	-0.226
-523.989	-57.404	-0.254	-0.140
-522.975	-38.111	-0.174	-0.116
-521.960	309.631	-0.189	0.447
-520.945	-83.752	-0.091	-0.036
-519.931	210.287	0.117	-0.231
-518.916	-200.000	-0.027	0.320
-517.902	-31.012	-0.264	0.186
-516.887	271.534	0.057	-0.127
-515.872	-170.337	-0.114	-0.005
-514.858	-200.000	0.020	0.196
-513.843	-2.978	-0.352	0.308
-512.829	666.781	-0.157	-0.511
-511.814	155.008	-0.175	-0.303
-510.799	800.000	0.219	-0.868
-509.785	800.000	0.062	-0.235
-508.770	-161.851	0.202	-0.013
-507.756	-151.679	-0.097	-0.009
-506.741	-162.018	0.243	0.015
-505.726	-135.348	0.151	-0.022
-504.712	194.776	0.112	-0.214
-503.697	800.000	0.128	-0.518
-502.683	-28.650	-0.326	-0.235
-501.668	-200.000	-0.062	0.361
-500.653	53.855	-0.125	-0.151
-499.639	50.102	-0.095	-0.112
-498.624	145.504	0.044	0.073
-497.610	473.104	-0.113	0.321
-496.595	-104.094	-0.068	0.020
-495.581	571.932	0.104	0.319
-494.566	-95.318	0.330	0.111
-493.551	-160.871	0.253	-0.016
-492.537	-76.898	0.071	0.031
-491.522	-37.887	0.195	0.129
-490.508	-200.000	0.006	0.417
-489.493	99.754	0.305	-0.443
-488.478	-131.320	0.380	-0.063
-487.464	-127.590	0.437	-0.079
-486.449	-200.000	0.045	-0.490
-485.435	-8.209	0.235	-0.198
-484.420	800.000	0.094	0.418
-483.405	-200.000	0.019	0.220
-482.391	11.590	-0.183	-0.176
-481.376	-69.245	-0.191	0.092
-480.362	624.443	0.099	-0.314
-479.347	211.773	-0.103	0.204
-478.332	400.295	0.049	-0.129
-477.318	-200.000	0.041	-0.252
-476.303	-121.104	-0.344	0.072
-475.289	112.625	0.160	0.243
-474.274	-161.139	0.419	-0.027
-473.259	-135.726	0.353	0.052
-472.245	120.929	-0.170	-0.266
-471.230	-200.000	0.008	0.287
-470.216	22.559	0.112	0.115
-469.201	800.000	-0.049	-0.215
-468.186	617.164	-0.063	-0.200
-467.172	291.594	0.192	0.440
-466.157	210.391	-0.116	-0.229
-465.143	121.182	-0.139	0.217
-464.128	36.115	-0.201	0.222
-463.113	166.396	-0.049	-0.087
-462.099	-200.000	-0.010	-0.149
-461.084	285.618	-0.064	0.145
-460.070	210.352	-0.084	0.166
-459.055	-107.174	-0.498	-0.137
-458.040	96.520	-0.267	0.383
-457.026	-117.695	0.483	-0.108
-456.011	-81.457	0.173	0.071
-454.997	-200.000	0.069	-0.502
-453.982	287.011	0.183	-0.415
-452.968	-117.301	0.267	0.060
-451.953	800.000	0.058	0.273
-450.938	-200.000	-0.081	0.517
-449.924	-156.912	0.091	0.007
-448.909	124.240	0.107	0.169
-447.895	-16.691	0.285	-0.225
-446.880	-45.601	-0.169	-0.105
-445.865	800.000	-0.096	0.434
-444.851	32.284	0.073	-0.078
-443.836	362.222	-0.028	-0.070
-442.822	52.621	-0.322	-0.385
-441.807	-46.816	0.076	-0.046
-440.792	104.680	0.112	0.165
-439.778	763.291	0.158	0.540
-438.763	-73.292	-0.370	0.169
-437.749	-125.466	-0.329	-0.062
-436.734	736.433	0.038	-0.127
-435.719	-66.831	0.335	-0.165
-434.705	209.805	0.132	-0.260
-433.690	58.609	0.098	0.120
-432.676	563.524	0.157	0.479
-431.661	-61.771	0.870	-0.454
-430.646	83.346	0.240	-0.327
-429.632	188.584	0.083	0.155
-428.617	24.219	0.136	0.141
-427.603	12.910	-0.146	0.142
-426.588	-154.705	-0.420	-0.034
-425.573	10.599	0.069	-0.066
-424.559	-109.691	-0.297	-0.078
-423.544	50.935	0.062	0.074
-422.530	-200.000	0.061	0.480
-421.515	2.419	-0.510	-0.461
-420.500	-132.775	-0.371	0.059
-419.486	411.228	-0.054	-0.145
-418.471	-18.001	0.397	-0.311
-417.457	800.000	0.086	-0.388
-416.442	-147.702	0.237	-0.025
-415.428	-69.712	-0.543	-0.259
-414.413	-32.549	-0.189	-0.131
-413.398	-108.880	-0.130	-0.034
-412.384	-105.039	0.458	-0.130
-411.369	-58.971	-0.133	-0.072
-410.355	-42.383	-0.060	-0.038
-409.340	54.488	0.484	-0.584
-408.325	434.935	0.105	0.287
-407.311	-200.000	0.035	0.206
-406.296	9.501	-0.191	-0.180
-405.282	-182.980	-0.104	0.002
-404.267	-67.606	0.475	0.232
-403.252	-200.000	0.019	-0.195
-402.238	-82.677	-0.051	-0.021
-401.223	-200.000	0.010	0.059
-400.209	-97.544	0.462	0.149
-399.194	577.747	-0.144	0.443
-398.179	708.773	0.149	0.494
-397.165	-46.822	0.304	0.185
-396.150	89.355	0.133	0.185
-395.136	35.771	0.027	0.030
-394.121	121.249	-0.086	-0.134
-393.106	-72.615	-0.366	-0.168
-392.092	800.000	0.045	0.209
-391.077	-64.188	-0.349	0.177
-390.063	-200.000	-0.010	0.160
-389.048	248.890	0.108	-0.229
-388.033	-200.000	-0.044	-0.500
-387.019	196.475	0.087	0.167
-386.004	-58.542	0.327	-0.177
-384.990	-59.143	-0.301	-0.161
-383.975	327.422	0.137	0.330
-382.960	-77.519	0.415	0.179
-381.946	89.700	0.156	-0.218
-380.931	21.647	-0.059	-0.060
-379.917	567.960	0.120	0.367
-378.902	-72.754	0.243	0.111
-377.888	56.394	-0.159	-0.193
-376.873	800.000	-0.172	-0.602
-375.858	427.990	-0.079	-0.214
-374.844	-200.000	-0.026	0.403
-373.829	-178.126	0.256	0.007
-372.815	-79.052	0.164	-0.069
-371.800	-181.451	-0.296	-0.007
-370.785	800.000	0.104	0.389
-369.771	-49.517	-0.760	-0.450
-368.756	6.179	0.406	0.376
-367.742	-8.388	-0.217	0.182
-366.727	-123.354	-0.143	0.028
-365.712	-44.061	-0.109	0.068
-364.698	-52.432	0.231	0.133
-363.683	-133.867	0.390	-0.060
-362.669	-31.162	-0.242	-0.170
-361.654	149.981	-0.162	-0.275
-360.639	-118.584	-0.334	-0.073
-359.625	37.095	-0.040	-0.044
-358.610	-181.261	0.271	0.007
-357.596	135.767	0.147	-0.240
-356.581	-52.420	-0.345	0.199
-355.566	-200.000	0.021	-0.299
-354.552	58.770	-0.192	-0.235
-353.537	-71.095	-0.201	-0.094
-352.523	-200.000	-0.006	0.046
-351.508	800.000	0.018	-0.069
-350.493	-200.000	-0.022	-0.182
-349.479	-189.449	0.092	0.001
-348.464	-160.855	-0.401	-0.026
-347.450	25.004	0.289	-0.299
-346.435	800.000	0.081	0.354
-345.420	-29.071	0.193	0.138
-344.406	92.418	-0.027	-0.037
-343.391	800.000	-0.033	0.171
-342.377	180.961	0.096	-0.177
-341.362	-90.979	-0.492	-0.175
-340.348	-200.000	0.010	-0.330
-339.333	800.000	0.045	-0.179
-338.318	-55.276	0.009	0.005
-337.304	-200.000	-0.013	0.089
-336.289	-111.880	0.266	-0.066
-335.275	1.622	0.093	-0.084
-334.260	-55.705	-0.160	0.089
-333.245	-159.344	0.215	0.015
-332.231	162.393	0.219	0.383
-331.216	-69.491	0.052	-0.025
-330.202	-147.014	-0.283	-0.030
-329.187	602.874	-0.277	-0.864
-328.172	-41.256	0.044	0.028
-327.158	800.000	-0.059	0.268
-326.143	-200.000	0.063	-0.431
-325.129	737.167	-0.121	0.408
-324.114	-62.427	0.225	-0.116
-323.099	-200.000	0.000	0.345
-322.085	-14.054	-0.212	0.170
-321.070	114.748	-0.246	0.374
-320.056	-200.000	-0.040	0.234
-319.041	-76.504	0.403	-0.176
-318.026	-42.532	0.458	0.290
-317.012	800.000	-0.076	0.384
-315.997	62.323	0.268	0.334
-314.983	-200.000	0.001	-0.111
-313.968	308.827	0.027	-0.063
-312.953	-28.291	0.370	-0.266
-311.939	61.180	-0.228	-0.282
-310.924	-117.922	-0.453	0.100
-309.910	-172.522	-0.315	-0.012
-308.895	73.056	-0.242	-0.316
-307.880	-57.239	-0.014	-0.008
-306.866	69.216	-0.267	-0.343
-305.851	-170.007	0.248	0.011
-304.837	-147.574	-0.213	0.022
-303.822	-200.000	0.040	-0.231
-302.807	332.550	0.130	-0.314
-301.793	-200.000	-0.015	0.354
-300.778	572.827	0.057	0.173
-299.764	-200.000	0.006	-0.180
-298.749	16.823	-0.094	0.092
-297.735	152.286	-0.069	-0.118
-296.720	-99.233	0.415	-0.130
-295.705	159.095	0.085	0.148
-294.691	-6.719	-0.327	0.276
-293.676	-114.423	-0.243	-0.058
-292.662	800.000	-0.053	0.260
-291.647	106.911	-0.231	0.342
-290.632	-78.019	-0.148	-0.063
-289.618	-64.935	-0.183	0.092
-288.603	-153.777	0.487	-0.041
-287.589	44.591	0.173	-0.198
-286.574	800.000	0.049	-0.172
-285.559	800.000	-0.034	0.149
-284.545	38.737	-0.127	0.141
-283.530	-42.263	0.080	0.051
-282.516	44.753	0.136	0.155
-281.501	-68.915	0.092	-0.044
-280.486	70.623	0.081	-0.105
-279.472	-92.045	0.131	-0.046
-278.457	-10.422	0.290	-0.239
-277.443	228.264	0.108	0.220
-276.428	-154.075	0.079	0.007
-275.413	-9.114	0.272	0.226
-274.399	119.360	0.133	0.206
-273.384	-68.517	-0.273	0.131
-272.370	135.007	-0.303	-0.491
-271.355	-129.561	0.167	0.028
-270.340	-64.970	-0.216	0.108
-269.326	158.431	-0.173	-0.300
-268.311	-87.505	0.688	-0.257
-267.297	241.720	0.057	0.118
-266.282	419.467	-0.104	0.278
-265.267	273.769	0.058	0.129
-264.253	-130.963	-0.083	-0.014
-263.238	-43.190	-0.457	0.287
-262.224	-200.000	-0.035	0.235
-261.209	-38.848	0.234	0.153
-260.195	40.538	-0.127	-0.142
-259.180	800.000	0.050	0.232
-258.165	-91.123	0.151	-0.054
-257.151	-21.272	0.078	-0.059
-256.136	800.000	0.130	0.500
-255.122	-120.111	-0.270	0.057
-254.107	261.381	-0.178	-0.385
-253.092	-146.480	0.288	0.031
-252.078	-31.279	-0.464	0.324
-251.063	-56.944	0.698	-0.381
-250.049	219.556	-0.204	-0.406
-249.034	-15.264	-0.154	0.123
-248.019	717.855	0.198	-0.656
-247.005	787.884	0.089	0.304
-245.990	-124.396	-0.253	-0.049
-244.976	725.187	0.034	0.114
-243.961	-92.893	-0.465	-0.160
-242.946	-59.622	0.144	0.076
-241.932	-86.964	-0.127	-0.048
-240.917	147.035	0.217	-0.364
-239.903	-110.615	0.318	0.081
-238.888	-135.150	0.527	-0.078
-237.873	1.782	0.272	-0.243
-236.859	-3.357	-0.436	0.377
-235.844	800.000	-0.042	0.182
-234.830	-72.287	0.098	0.045
-233.815	-72.964	0.215	0.098
-232.800	-93.394	0.364	-0.125
-231.786	-50.112	0.094	-0.055
-230.771	-200.000	-0.072	-0.708
-229.757	-162.534	0.205	-0.012
-228.742	-200.000	0.006	0.299
-227.727	17.406	0.223	-0.220
-226.713	-95.036	0.286	-0.095
-225.698	185.297	0.082	-0.152
-224.684	-200.000	-0.024	-0.137
-223.669	-97.463	0.208	0.067
-222.655	-101.097	-0.200	-0.060
-221.640	-7.271	0.128	0.108
-220.625	-111.267	0.576	0.145
-219.611	-119.193	-0.128	-0.028
-218.596	357.146	-0.129	0.320
-217.582	-200.000	-0.774	-0.001
-216.567	559.618	-0.017	-0.050
-215.552	99.474	-0.081	-0.117
-214.538	123.253	-0.107	-0.167
-213.523	168.004	-0.089	0.157
-212.509	61.109	-0.279	-0.344
-211.494	33.156	0.398	0.428
-210.479	-84.393	0.260	0.102
-209.465	56.014	0.186	0.223
-208.450	-148.380	0.296	-0.030
-207.436	215.546	0.146	-0.289
-206.421	226.498	-0.308	0.622
-205.406	-106.134	-0.400	-0.111
-204.392	800.000	-0.088	-0.316
-203.377	11.350	-0.047	0.045
-202.363	-109.641	0.480	-0.125
-201.348	54.662	0.091	0.109
-200.333	-93.138	-0.294	0.101
-199.319	-50.057	0.094	-0.055
-198.304	-76.270	0.198	0.086
-197.290	14.937	0.355	-0.344
-196.275	70.224	0.286	0.367
-195.260	-92.599	0.286	0.099
-194.246	154.909	-0.108	0.184
-193.231	-83.172	-0.585	0.232
-192.217	18.901	-0.027	-0.027
-191.202	118.025	0.074	0.113
-190.187	-48.086	-0.479	0.286
-189.173	-126.726	-0.279	0.051
-188.158	301.646	-0.142	0.326
-187.144	321.387	0.221	0.523
-186.129	270.786	-0.130	-0.285
-185.114	-139.262	-0.369	-0.049
-184.100	425.886	0.080	-0.213
-183.085	-200.000	0.243	0.000
-182.071	800.000	0.060	-0.226
-181.056	-103.572	0.405	-0.117
-180.042	285.415	0.148	-0.331
-179.027	63.071	0.174	0.216
-178.012	68.362	-0.387	-0.491
-176.998	73.368	0.150	-0.195
-175.983	4.124	-0.045	0.040
-174.969	462.539	0.089	-0.247
-173.954	0.603	0.267	0.236
-172.939	800.000	0.078	-0.304
-171.925	-50.737	-0.251	-0.146
-170.910	-108.394	0.184	-0.049
-169.896	16.495	-0.462	0.452
-168.881	-73.343	-0.187	-0.084
-167.866	-75.891	-0.481	0.210
-166.852	-53.621	-0.483	0.272
-165.837	-70.205	-0.710	0.333
-164.823	-70.253	0.420	-0.196
-163.808	188.343	-0.264	0.491
-162.793	-200.000	0.056	0.451
-161.779	68.633	0.107	0.136
-160.764	26.058	0.147	0.152
-159.750	-83.481	-0.208	-0.082
-158.735	-141.173	-0.327	0.041
-157.720	522.133	0.032	0.094
-156.706	19.960	0.175	-0.174
-155.691	15.961	0.167	0.162
-154.677	61.612	-0.223	0.275
-153.662	25.121	-0.167	-0.172
-152.647	136.384	-0.151	0.245
-151.633	-53.985	0.336	0.189
-150.618	-150.822	-0.217	0.020
-149.604	-144.535	-1.019	-0.115
-148.589	-146.758	-0.492	0.052
-147.574	-141.682	0.040	0.005
-146.560	-127.493	0.437	0.078
-145.545	-36.253	0.549	-0.365
-144.531	61.009	-0.351	-0.432
-143.516	-129.758	-0.194	-0.033
-142.502	118.342	-0.204	0.311
-141.487	-75.984	-0.440	-0.192
-140.472	230.578	0.201	0.409
-139.458	87.895	0.083	0.115
-138.443	-110.677	0.443	-0.112
-137.429	-23.807	0.054	0.040
-136.414	-112.500	0.095	-0.023
-135.399	-82.918	0.218	-0.087
-134.385	-100.045	-0.084	-0.026
-133.370	-82.178	0.387	0.155
-132.356	-85.714	0.440	-0.168
-131.341	174.057	-0.062	-0.111
-130.326	231.599	-0.086	-0.175
-129.312	-200.000	0.068	0.391
-128.297	-33.506	-0.094	0.064
-127.283	363.733	0.159	0.396
-126.268	-200.000	-0.071	0.427
-125.253	-13.234	0.499	-0.400
-124.239	66.213	0.238	-0.299
-123.224	287.254	-0.146	0.328
-122.210	546.572	0.021	-0.061
-121.195	-81.022	0.333	-0.136
-120.180	462.058	-0.168	-0.465
-119.166	50.618	-0.024	0.028
-118.151	-50.179	0.406	-0.237
-117.137	-200.000	-0.093	-0.533
-116.122	5.967	-0.385	0.352
-115.107	-11.955	0.386	0.313
-114.093	85.576	-0.251	0.341
-113.078	-53.362	-0.271	0.153
-112.064	364.741	0.200	0.499
-111.049	-70.371	-0.271	0.126
-110.034	244.175	-0.124	0.258
-109.020	-81.699	-0.125	-0.051
-108.005	53.660	-0.158	0.188
-106.991	313.467	0.269	0.627
-105.976	-130.428	-0.257	0.043
-104.962	800.000	0.046	0.251
-103.947	42.347	0.230	0.259
-102.932	800.000	-0.084	-0.357
-101.918	-60.640	-0.072	0.038
-100.903	324.853	0.207	-0.491
-99.889	-33.785	-0.113	-0.077
-98.874	45.087	-0.113	-0.128
-97.859	162.395	-0.164	-0.284
-96.845	-109.248	0.381	0.099
-95.830	42.272	0.332	-0.373
-94.816	-200.000	-0.012	-0.419
-93.801	-127.751	-0.205	-0.036
-92.786	-200.000	0.002	0.330
-91.772	-142.860	-0.117	0.014
-90.757	800.000	0.228	-0.800
-89.743	41.093	0.520	-0.580
-88.728	162.788	0.397	0.690
-87.713	455.741	-0.064	-0.177
-86.699	50.180	-0.539	-0.629
-85.684	21.323	-0.207	-0.207
-84.670	85.757	-0.269	-0.365
-83.655	-148.253	-0.408	-0.041
-82.640	662.094	-0.032	-0.101
-81.626	-20.462	-0.434	0.329
-80.611	-176.529	-0.389	0.012
-79.597	-88.546	-0.234	0.085
-78.582	-60.323	-0.388	0.203
-77.567	-59.540	0.226	-0.119
-76.553	-118.989	0.206	-0.044
-75.538	76.601	0.097	0.127
-74.524	35.630	-0.203	-0.220
-73.509	115.936	0.092	-0.139
-72.494	-26.222	-0.279	-0.202
-71.480	-107.530	-0.222	-0.059
-70.465	43.983	0.096	0.108
-69.451	800.000	0.066	0.307
-68.436	61.658	-0.390	0.479
-67.422	12.301	-0.524	0.498
-66.407	-62.211	0.390	-0.200
-65.392	-65.641	0.343	-0.169
-64.378	7.996	-0.128	0.118
-63.363	-31.633	-0.254	0.175
-62.349	-109.137	0.264	0.069
-61.334	5.113	-1.095	-0.994
-60.319	-18.005	0.454	0.350
-59.305	338.903	-2.628	-6.340
-58.290	13.217	2.880	2.750
-57.276	430.346	4.044	10.845
-56.261	-200.000	13.357	204.826
-55.246	515.323	1122.427	3248.919
-54.232	70.127	2769.591	3529.222
-53.217	77.027	2691.376	3529.020
-52.203	89.622	2425.197	3341.078
-51.188	36.366	2079.106	2260.774
-50.173	39.321	1947.679	2150.301
-49.159	37.580	1936.499	2118.839
-48.144	37.015	1932.662	2108.378
-47.130	36.844	1929.844	2103.353
-46.115	36.683	1928.319	2099.850
-45.100	36.771	1926.891	2099.176
-44.086	36.548	1926.044	2095.742
-43.071	36.693	1923.934	2094.943
-42.057	36.632	1922.399	2092.521
-41.042	36.686	1921.830	2092.408
-40.027	36.684	1919.421	2089.679
-39.013	36.656	1917.933	2087.677
-37.998	36.679	1916.077	2085.813
-36.984	36.647	1915.347	2084.591
-35.969	36.497	1915.137	2082.658
-34.954	36.677	1913.495	2082.734
-33.940	36.658	1912.617	2081.498
-32.925	36.528	1911.482	2078.767
-31.911	36.440	1909.581	2075.675
-30.896	36.573	1907.471	2074.726
-29.881	36.530	1907.596	2074.315
-28.867	36.495	1905.546	2071.625
-27.852	36.467	1904.328	2069.926
-26.838	36.391	1903.268	2067.868
-25.823	36.358	1901.185	2065.171
-24.809	36.574	1899.110	2065.150
-23.794	36.473	1898.539	2063.365
-22.779	36.480	1897.503	2062.237
-21.765	36.414	1896.123	2059.939
-20.750	36.446	1894.654	2058.604
-19.736	36.341	1894.772	2057.536
-18.721	36.294	1893.247	2055.290
-17.706	36.289	1891.737	2053.518
-16.692	36.348	1890.642	2052.878
-15.677	36.153	1889.628	2049.609
-14.663	36.314	1888.315	2049.822
-13.648	36.321	1886.723	2048.089
-12.633	36.323	1886.240	2047.504
-11.619	36.353	1883.394	2044.649
-10.604	36.248	1883.110	2043.145
-9.590	36.155	1882.244	2041.134
-8.575	36.166	1880.697	2039.491
-7.560	36.196	1879.568	2038.503
-6.546	36.280	1877.906	2037.517
-5.531	36.278	1877.190	2036.642
-4.517	36.254	1876.321	2035.354
-3.502	36.387	1875.561	2035.868
-2.487	36.362	1873.902	2033.717
-1.473	36.435	1871.543	2031.844
-0.458	36.786	1852.217	2014.463
0.556	32.665	1981.979	2097.014
1.571	31.141	2197.013	2305.338
2.586	32.965	2245.275	2378.826
3.600	32.953	2247.901	2381.162
4.615	33.009	2247.337	2380.994
5.629	32.995	2244.192	2377.193
6.644	33.093	2242.552	2376.422
7.659	33.219	2241.312	2376.409
8.673	33.311	2240.315	2376.226
9.688	32.535	2242.782	2368.760
10.702	28.704	2310.479	2389.946
11.717	24.779	2372.387	2400.861
12.731	12.933	2341.278	2210.422
13.746	2.118	2312.414	2038.386
14.761	0.429	2308.022	2011.645
15.775	0.260	2304.934	2006.451
16.790	0.186	2303.316	2003.802
17.804	0.159	2301.711	2001.812
18.819	0.142	2300.959	2000.687
19.834	0.111	2298.879	1998.233
20.848	0.154	2297.843	1997.657
21.863	0.129	2296.429	1995.854
22.877	0.102	2294.279	1993.389
23.892	0.104	2292.203	1991.373
24.907	0.126	2289.614	1989.183
25.921	0.170	2288.095	1988.205
26.936	0.112	2286.185	1985.546
27.950	0.102	2283.504	1982.847
28.965	0.091	2282.128	1981.262
29.980	0.166	2280.652	1980.743
30.994	0.351	2278.098	1980.727
32.009	6.495	2301.086	2082.262
33.023	21.900	2345.811	2329.632
34.038	29.421	2361.514	2445.581
35.053	30.182	2360.851	2454.730
36.067	30.008	2357.810	2448.960
37.082	29.797	2354.861	2442.800
38.096	29.754	2353.337	2440.361
39.111	30.136	2352.059	2443.806
40.126	30.380	2350.088	2444.691
41.140	30.741	2349.563	2448.634
42.155	30.501	2346.439	2441.921
43.169	30.014	2344.553	2433.227
44.184	30.147	2341.457	2431.473
45.199	30.074	2338.339	2426.988
46.213	29.902	2337.753	2423.828
47.228	29.781	2336.838	2420.990
48.242	29.826	2336.285	2420.719
49.257	30.171	2334.178	2422.783
50.271	30.564	2331.946	2425.339
51.286	30.560	2329.683	2422.638
52.301	30.091	2326.933	2413.355
53.315	29.538	2324.384	2403.186
54.330	28.857	2321.450	2390.963
55.344	28.416	2317.842	2381.203
56.359	28.552	2314.092	2378.832
57.374	28.519	2311.974	2375.942
58.388	28.268	2309.164	2369.503
59.403	28.091	2306.235	2363.926
60.417	28.043	2303.882	2360.598
61.432	28.520	2302.252	2364.836
62.447	28.392	2300.166	2360.748
63.461	28.387	2298.761	2358.960
64.476	28.310	2295.769	2354.620
65.490	28.581	2295.395	2357.447
66.505	28.735	2293.835	2357.548
67.520	28.882	2294.574	2359.921
68.534	29.420	2293.482	2365.460
69.549	29.459	2290.550	2362.647
70.563	29.582	2288.165	2361.487
71.578	29.682	2286.957	2361.249
72.593	30.055	2286.725	2365.509
73.607	30.148	2284.731	2364.362
74.622	29.972	2282.911	2359.935
75.636	29.694	2279.307	2352.372
76.651	29.745	2277.647	2351.036
77.666	30.015	2276.414	2352.921
78.680	30.004	2273.201	2349.180
79.695	29.701	2270.596	2342.346
80.709	29.015	2267.185	2329.818
81.724	29.001	2264.127	2326.223
82.739	29.559	2265.462	2334.406
83.753	30.233	2265.089	2342.309
84.768	30.189	2262.273	2338.549
85.782	30.072	2260.457	2334.918
86.797	30.009	2259.681	2333.034
87.812	29.699	2256.137	2325.175
88.826	29.502	2253.945	2320.149
89.841	29.760	2252.016	2321.151
90.855	30.103	2249.868	2322.977
91.870	29.398	2247.343	2311.214
92.884	29.205	2245.535	2306.648
93.899	29.462	2244.893	2308.945
94.914	28.966	2242.682	2300.163
95.928	28.116	2239.792	2286.249
96.943	28.063	2238.422	2283.918
97.957	28.831	2238.952	2293.825
98.972	29.491	2237.642	2300.472
99.987	29.261	2233.053	2292.610
101.001	29.252	2230.463	2289.557
102.016	29.298	2230.083	2289.476
103.030	29.337	2226.987	2286.510
104.045	29.548	2225.093	2286.908
105.060	30.066	2225.075	2293.064
106.074	30.210	2222.851	2292.289
107.089	29.659	2219.960	2282.197
108.103	29.437	2218.245	2277.411
109.118	29.766	2218.401	2281.371
110.133	30.009	2216.682	2282.349
111.147	29.920	2213.730	2277.928
112.162	29.867	2212.406	2275.640
113.176	29.899	2210.246	2273.538
114.191	29.535	2208.476	2266.956
115.206	29.485	2206.808	2264.361
116.220	29.873	2205.273	2267.292
117.235	29.800	2203.183	2263.978
118.249	29.700	2200.572	2259.784
119.264	29.994	2199.861	2262.402
120.279	29.994	2198.704	2260.942
121.293	29.875	2195.737	2256.157
122.308	29.774	2194.752	2253.634
123.322	29.628	2192.487	2249.256
124.337	28.767	2188.898	2234.784
125.352	28.291	2188.117	2227.898
126.366	28.688	2188.829	2233.208
127.381	29.712	2186.910	2243.481
128.395	30.160	2185.501	2247.228
129.410	30.015	2183.222	2242.852
130.424	29.871	2181.531	2239.098
131.439	30.026	2180.503	2239.665
132.454	29.828	2177.243	2233.642
133.468	30.003	2175.777	2233.995
134.483	29.961	2174.163	2231.561
135.497	29.926	2172.733	2229.397
136.512	30.262	2171.421	2231.851
137.527	30.142	2170.333	2229.014
138.541	29.933	2168.739	2224.583
139.556	29.819	2167.263	2221.427
140.570	29.829	2165.054	2219.018
141.585	29.756	2162.055	2214.796
142.600	29.618	2161.299	2212.102
143.614	29.605	2160.392	2210.748
144.629	29.790	2159.660	2211.967
145.643	29.687	2156.789	2207.526
146.658	29.509	2154.395	2202.674
147.673	29.280	2150.431	2195.608
148.687	29.315	2150.220	2195.557
149.702	29.383	2149.549	2195.424
150.716	29.493	2147.968	2194.858
151.731	29.896	2148.830	2200.291
152.746	30.078	2147.849	2201.196
153.760	29.309	2143.949	2187.766
154.775	28.146	2141.193	2170.836
155.789	27.787	2139.075	2164.143
156.804	28.497	2137.140	2170.381
157.819	29.065	2135.069	2174.766
158.833	29.254	2134.398	2176.063
159.848	29.896	2133.407	2182.405
160.862	30.009	2132.825	2182.884
161.877	30.162	2132.298	2183.901
162.892	30.262	2131.460	2183.961
163.906	30.484	2130.789	2185.643
164.921	30.497	2127.612	2182.271
165.935	30.338	2124.407	2176.848
166.950	29.903	2122.589	2169.605
167.964	29.771	2119.244	2164.371
168.979	29.647	2117.468	2160.837
169.994	29.677	2117.426	2160.887
171.008	29.687	2114.397	2157.662
172.023	29.543	2113.954	2155.260
173.037	30.093	2112.956	2160.430
174.052	30.103	2111.054	2158.350
175.067	29.720	2109.458	2151.978
176.081	29.802	2108.710	2151.910
177.096	29.808	2108.242	2151.252
178.110	29.793	2105.217	2147.729
179.125	29.641	2104.284	2144.749
180.140	29.919	2102.859	2146.282
181.154	30.014	2102.496	2146.760
182.169	30.055	2101.396	2145.856
183.183	29.673	2098.389	2138.083
184.198	28.752	2093.865	2122.523
185.213	28.430	2092.943	2117.605
186.227	29.530	2093.943	2131.129
187.242	29.757	2092.780	2132.323
188.256	29.702	2091.004	2129.620
189.271	29.831	2090.247	2130.085
190.286	29.869	2087.571	2127.543
191.300	29.543	2084.541	2120.442
192.315	29.617	2082.671	2119.140
193.329	29.967	2083.114	2123.365
194.344	30.447	2082.666	2128.188
195.359	30.270	2081.784	2124.997
196.373	30.444	2078.713	2123.601
197.388	30.378	2076.469	2120.299
198.402	30.128	2074.301	2114.962
199.417	30.104	2072.154	2112.251
200.432	30.212	2070.039	2111.079
201.446	30.156	2069.005	2109.126
202.461	29.741	2066.278	2101.355
203.475	29.283	2064.159	2093.726
204.490	29.402	2063.128	2093.783
205.504	29.639	2060.698	2093.771
206.519	29.534	2057.533	2089.103
207.534	29.716	2057.217	2090.603
208.548	30.057	2056.391	2093.395
209.563	29.504	2053.854	2084.278
210.577	29.561	2053.825	2084.648
211.592	30.130	2053.982	2091.013
212.607	29.530	2050.097	2080.013
213.621	27.735	2046.263	2055.568
214.636	27.646	2045.108	2053.151
215.650	29.307	2046.890	2073.495
216.665	30.146	2047.233	2083.071
217.680	30.159	2045.316	2081.018
218.694	30.243	2043.847	2080.229
219.709	29.707	2040.119	2070.146
220.723	29.701	2039.888	2069.606
221.738	30.351	2039.256	2076.020
222.753	30.603	2037.224	2076.538
223.767	30.138	2035.823	2069.644
224.782	29.889	2033.191	2063.923
225.796	29.940	2031.568	2062.601
226.811	30.455	2031.210	2067.758
227.826	30.456	2028.959	2065.232
228.840	30.103	2027.630	2059.685
229.855	30.007	2025.737	2056.443
230.869	29.751	2023.006	2050.572
231.884	29.711	2021.807	2048.671
232.899	29.928	2021.030	2050.051
233.913	30.026	2020.395	2050.256
234.928	30.235	2018.906	2050.813
235.942	29.942	2017.535	2045.928
236.957	29.612	2015.306	2039.756
237.972	29.781	2013.865	2039.929
238.986	29.881	2012.575	2039.482
240.001	29.581	2010.879	2034.201
241.015	29.357	2009.434	2030.020
242.030	29.591	2008.562	2031.477
243.045	28.873	2005.710	2020.423
244.059	28.834	2004.243	2018.277
245.074	29.890	2003.715	2029.150
246.088	29.757	2000.851	2024.540
247.103	29.608	2000.442	2022.239
248.117	30.046	1999.361	2025.721
249.132	29.978	1997.723	2023.074
250.147	29.619	1994.088	2015.214
251.161	29.357	1992.415	2010.413
252.176	29.569	1991.018	2011.086
253.190	29.536	1989.340	2008.793
254.205	29.613	1987.044	2007.070
255.220	29.627	1986.012	2005.943
256.234	29.484	1984.925	2003.040
257.249	29.424	1983.833	2001.053
258.263	29.644	1984.035	2003.406
259.278	29.795	1982.897	2003.666
260.293	29.994	1980.489	2003.155
261.307	29.840	1979.172	1999.908
262.322	29.830	1978.060	1998.437
263.336	29.588	1974.780	1992.259
264.351	29.433	1972.715	1988.259
265.366	29.728	1972.554	1991.060
266.380	29.780	1973.137	1991.971
267.395	29.508	1970.617	1986.243
268.409	29.394	1969.021	1983.167
269.424	29.703	1967.371	1984.601
270.439	30.036	1966.594	1987.178
271.453	29.916	1964.924	1983.960
272.468	28.573	1960.180	1964.483
273.482	28.066	1957.864	1956.472
274.497	29.023	1957.334	1965.999
275.512	29.702	1956.542	1972.256
276.526	29.816	1954.753	1971.429
277.541	29.740	1952.388	1967.997
278.555	29.474	1950.497	1963.011
279.570	29.604	1948.799	1962.462
280.585	29.218	1947.500	1956.797
281.599	29.464	1946.764	1958.445
282.614	29.487	1945.052	1956.730
283.628	28.270	1940.260	1938.742
284.643	27.443	1936.907	1926.364
285.657	26.853	1934.489	1917.464
286.672	26.673	1933.190	1914.037
287.687	26.555	1929.996	1909.387
288.701	26.370	1929.481	1906.690
289.716	26.105	1925.872	1900.096
290.730	25.246	1922.757	1887.714
291.745	25.797	1922.226	1892.785
292.760	26.016	1923.301	1895.940
293.774	27.276	1927.377	1913.057
294.789	29.126	1928.903	1933.889
295.803	29.570	1927.750	1937.186
296.818	29.609	1926.585	1936.194
297.833	29.861	1925.360	1937.388
298.847	29.944	1924.202	1936.856
299.862	29.827	1923.373	1934.559
300.876	29.668	1920.298	1929.573
301.891	28.773	1917.303	1916.950
302.906	28.726	1917.538	1916.464
303.920	29.589	1917.828	1925.573
304.935	30.088	1916.583	1929.313
305.949	30.162	1914.925	1928.182
306.964	29.979	1913.632	1924.747
307.979	29.390	1909.073	1913.790
308.993	27.108	1900.507	1881.251
310.008	24.969	1894.795	1853.150
311.022	24.668	1892.667	1847.725
312.037	25.017	1891.644	1850.124
313.052	24.938	1890.438	1847.899
314.066	24.672	1887.861	1842.410
315.081	24.554	1886.996	1840.117
316.095	24.595	1885.571	1838.932
317.110	24.435	1883.920	1835.455
318.125	24.468	1882.233	1833.928
319.139	24.465	1881.227	1832.704
320.154	24.793	1880.340	1834.993
321.168	25.118	1880.093	1837.887
322.183	27.045	1884.564	1861.916
323.197	29.385	1888.148	1889.362
324.212	30.137	1886.823	1895.537
325.227	29.670	1885.362	1889.048
326.241	29.762	1884.608	1889.008
327.256	29.993	1883.869	1890.415
328.270	29.937	1881.372	1887.112
329.285	29.734	1882.034	1885.468
330.300	29.601	1880.698	1882.538
331.314	28.423	1875.508	1865.082
332.329	28.210	1874.474	1861.645
333.343	29.240	1874.910	1872.382
334.358	29.856	1874.109	1877.648
335.373	30.200	1873.001	1879.819
336.387	30.524	1871.761	1881.647
337.402	30.427	1869.802	1878.471
338.416	30.133	1868.601	1874.052
339.431	30.006	1867.242	1871.172
340.446	29.955	1863.627	1866.806
341.460	28.211	1857.480	1842.797
342.475	27.038	1853.992	1827.262
343.489	26.324	1850.202	1816.099
344.504	25.545	1848.265	1806.116
345.519	25.307	1845.522	1800.823
346.533	24.879	1843.052	1793.878
347.548	24.772	1841.470	1791.050
348.562	24.999	1840.913	1792.581
349.577	24.795	1840.167	1789.588
350.592	24.921	1838.824	1789.330
351.606	25.027	1837.328	1788.725
352.621	24.712	1834.698	1782.798
353.635	24.798	1833.659	1782.431
354.650	25.809	1836.646	1795.259
355.665	28.207	1840.825	1823.174
356.679	29.279	1841.684	1834.534
357.694	29.605	1841.412	1837.308
358.708	30.111	1840.331	1841.059
359.723	29.727	1839.145	1835.819
360.738	28.669	1835.162	1821.083
361.752	28.598	1834.840	1819.833
362.767	29.905	1834.877	1832.678
363.781	30.127	1833.352	1833.140
364.796	30.256	1832.609	1833.453
365.810	30.195	1830.283	1830.310
366.825	29.139	1825.589	1814.937
367.840	26.373	1818.534	1780.367
368.854	24.756	1814.358	1760.090
369.869	24.732	1811.693	1757.055
370.883	24.659	1810.913	1755.370
371.898	24.798	1810.763	1756.389
372.913	24.937	1808.862	1755.696
373.927	24.685	1806.807	1751.018
374.942	24.696	1806.730	1750.834
375.956	25.619	1807.537	1760.499
376.971	26.080	1806.276	1763.588
377.986	25.860	1804.482	1759.466
379.000	25.973	1802.860	1758.782
380.015	26.281	1803.019	1761.741
381.029	27.914	1806.662	1781.110
382.044	29.692	1808.237	1799.870
383.059	29.974	1806.447	1800.638
384.073	29.717	1805.243	1796.711
385.088	29.742	1805.187	1796.686
386.102	29.996	1803.320	1797.083
387.117	29.966	1801.342	1794.605
388.132	30.005	1801.845	1795.275
389.146	29.693	1800.494	1790.676
390.161	28.363	1795.925	1772.985
391.175	28.143	1793.027	1767.776
392.190	28.770	1790.930	1771.582
393.205	29.500	1789.791	1777.308
394.219	29.670	1788.593	1777.553
395.234	29.423	1787.654	1774.016
396.248	29.417	1785.896	1772.008
397.263	29.433	1783.646	1769.717
398.278	29.374	1781.852	1767.154
399.292	29.268	1780.725	1764.799
400.307	28.744	1777.531	1756.391
401.321	27.438	1772.968	1739.143
402.336	26.623	1770.750	1728.945
403.350	26.372	1768.629	1724.256
404.365	26.628	1768.633	1726.510
405.380	26.516	1765.878	1722.539
406.394	25.500	1761.960	1708.810
407.409	24.973	1759.900	1701.581
408.423	24.930	1758.556	1699.664
409.438	24.848	1756.462	1696.652
410.453	24.779	1755.846	1695.198
411.467	24.931	1755.681	1696.284
412.482	25.000	1756.398	1697.431
413.496	27.300	1760.816	1723.426
414.511	29.421	1762.097	1744.665
415.526	29.921	1760.708	1747.820
416.540	29.996	1759.950	1747.578
417.555	29.989	1759.127	1746.485
418.569	29.735	1758.336	1743.080
419.584	29.768	1758.150	1743.000
420.599	29.815	1757.587	1742.678
421.613	29.956	1756.138	1742.368
422.628	29.787	1755.343	1739.774
423.642	30.142	1754.008	1741.597
424.657	29.517	1750.778	1732.289
425.672	29.404	1749.934	1730.179
426.686	29.759	1748.873	1732.263
427.701	29.528	1746.393	1727.429
428.715	29.437	1745.145	1725.131
429.730	29.936	1744.630	1729.101
430.745	30.464	1744.125	1733.350
431.759	30.748	1744.812	1736.486
432.774	31.128	1743.665	1738.701
433.788	29.111	1737.974	1713.963
434.803	27.188	1733.192	1691.081
435.818	26.656	1733.089	1685.799
436.832	26.673	1732.030	1684.729
437.847	26.004	1724.878	1671.342
438.861	16.716	1697.978	1559.503
439.876	3.883	1673.205	1418.840
440.890	0.529	1667.072	1382.620
441.905	0.251	1665.796	1378.837
442.920	0.185	1664.676	1377.140
443.934	0.155	1663.170	1375.452
444.949	0.181	1662.247	1374.765
445.963	0.132	1661.319	1373.388
446.978	0.113	1660.528	1372.393
447.993	0.114	1659.584	1371.460
449.007	0.146	1656.733	1369.227
450.022	0.105	1654.929	1367.203
451.036	0.071	1654.766	1366.587
452.051	1.454	1661.674	1384.803
453.066	13.098	1688.274	1514.680
454.080	24.718	1705.658	1637.726
455.095	27.425	1711.512	1668.119
456.109	29.716	1715.783	1693.197
457.124	30.760	1716.319	1703.136
458.139	29.890	1713.522	1692.161
459.153	29.418	1710.702	1684.848
460.168	29.235	1709.332	1681.616
461.182	29.672	1707.929	1684.037
462.197	30.136	1708.030	1688.179
463.212	30.511	1707.412	1690.804
464.226	30.938	1707.299	1694.391
465.241	31.311	1706.896	1697.197
466.255	31.347	1705.807	1696.233
467.270	31.242	1705.166	1694.441
468.285	31.655	1704.222	1697.061
469.299	32.142	1703.910	1700.978
470.314	32.339	1702.174	1700.838
471.328	32.216	1700.875	1698.221
472.343	32.186	1700.531	1697.401
473.358	32.201	1698.159	1694.963
474.372	32.211	1697.088	1693.786
475.387	32.546	1696.920	1696.448
476.401	32.542	1694.848	1694.138
477.416	31.929	1692.419	1685.964
478.430	31.907	1691.924	1685.078
479.445	32.103	1691.110	1685.830
480.460	32.042	1689.514	1683.487
481.474	32.147	1689.123	1683.846
482.489	32.490	1688.377	1685.984
483.503	32.179	1684.925	1679.541
484.518	31.904	1682.638	1674.597
485.533	32.231	1682.901	1677.587
486.547	32.046	1681.030	1673.866
487.562	31.400	1679.479	1666.334
488.576	31.793	1678.969	1669.145
489.591	32.484	1677.894	1674.062
490.606	32.597	1676.835	1673.807
491.620	32.624	1675.115	1672.135
492.635	32.397	1673.260	1668.060
493.649	31.778	1670.648	1659.751
494.664	31.615	1670.368	1657.818
495.679	31.894	1669.431	1659.171
496.693	31.952	1668.855	1658.917
497.708	32.132	1667.596	1659.070
498.722	32.260	1666.166	1658.581
499.737	32.368	1665.857	1659.031
500.752	32.492	1663.895	1657.980
501.766	32.598	1662.397	1657.220
502.781	32.635	1660.510	1655.472
503.795	32.653	1659.095	1654.024
504.810	32.448	1658.442	1651.366
505.825	32.285	1657.821	1649.108
506.839	31.787	1655.212	1641.934
507.854	31.605	1653.389	1638.330
508.868	31.361	1650.795	1633.413
509.883	30.537	1648.527	1623.743
510.898	30.066	1646.200	1617.129
511.912	29.667	1644.505	1611.773
512.927	29.213	1642.207	1605.354
513.941	29.458	1639.958	1605.102
514.956	29.966	1640.106	1609.493
515.971	30.816	1639.903	1616.527
516.985	30.320	1638.462	1610.588
518.000	29.720	1636.530	1603.266
519.014	29.514	1635.663	1600.433
520.029	29.527	1634.052	1598.773
521.043	29.522	1632.303	1596.825
522.058	29.535	1631.593	1596.054
523.073	29.535	1631.127	1595.411
524.087	29.978	1629.379	1597.351
525.102	30.416	1628.941	1600.522
526.116	31.169	1630.232	1608.125
527.131	31.796	1629.761	1612.898
528.146	31.852	1629.472	1612.900
529.160	32.075	1628.997	1614.165
530.175	32.327	1628.443	1615.600
531.189	32.311	1627.123	1613.960
532.204	32.262	1625.703	1611.930
533.219	32.128	1624.106	1609.006
534.233	32.191	1622.949	1608.210
535.248	31.683	1620.577	1601.296
536.262	31.432	1619.924	1598.308
537.277	31.969	1619.435	1602.245
538.292	32.335	1618.494	1604.259
539.306	32.261	1617.227	1602.182
540.321	31.958	1614.420	1596.614
541.335	31.361	1612.878	1589.793
542.350	31.909	1611.964	1593.386
543.365	32.377	1610.619	1595.857
544.379	32.537	1610.289	1596.698
545.394	32.499	1608.604	1594.512
546.408	31.954	1606.115	1587.226
547.423	31.920	1605.640	1586.274
548.438	32.441	1605.592	1590.462
549.452	32.612	1603.456	1589.613
550.467	32.020	1602.161	1583.119
551.481	32.036	1601.771	1582.680
552.496	32.068	1600.882	1581.885
553.511	32.147	1599.265	1580.762
554.525	32.168	1598.385	1579.884
555.540	32.240	1597.371	1579.302
556.554	32.342	1597.091	1579.695
557.569	32.133	1593.776	1574.465
558.583	31.576	1591.904	1567.735
559.598	31.379	1590.863	1564.868
560.613	31.351	1589.517	1563.117
561.627	31.060	1587.832	1558.835
562.642	30.691	1584.376	1552.159
563.656	30.215	1582.249	1545.900
564.671	29.749	1580.909	1540.509
565.686	29.717	1579.392	1538.579
566.700	29.735	1577.475	1536.672
567.715	29.656	1576.664	1535.045
568.729	29.869	1576.263	1536.241
569.744	30.601	1575.609	1541.528
570.759	30.607	1575.350	1541.136
571.773	30.265	1572.914	1535.725
572.788	29.884	1571.087	1530.589
573.802	29.696	1569.773	1527.569
574.817	29.686	1567.343	1524.934
575.832	29.816	1566.390	1524.906
576.846	30.271	1567.297	1529.377
577.861	31.020	1567.697	1535.783
578.875	31.412	1567.488	1538.643
579.890	31.707	1567.332	1540.741
580.905	31.872	1566.245	1540.852
581.919	32.008	1565.636	1541.191
582.934	32.282	1564.735	1542.379
583.948	31.904	1563.014	1537.385
584.963	31.796	1561.519	1534.847
585.978	31.801	1560.251	1533.457
586.992	31.255	1558.564	1527.128
588.007	31.277	1557.565	1526.149
589.021	31.095	1554.943	1521.903
590.036	30.336	1552.775	1513.378
591.051	30.850	1552.894	1517.524
592.065	31.564	1551.796	1522.114
593.080	31.588	1550.928	1521.277
594.094	31.656	1549.945	1520.682
595.109	31.759	1548.096	1519.526
596.123	32.153	1547.844	1522.306
597.138	32.231	1547.195	1522.125
598.153	31.858	1545.722	1517.453
599.167	31.634	1542.686	1512.476
600.182	31.295	1542.332	1509.193
601.196	31.531	1541.098	1509.717
602.211	31.849	1540.521	1511.554
603.226	31.771	1538.987	1509.237
604.240	31.886	1537.905	1508.924
605.255	32.027	1537.069	1509.064
606.269	31.809	1536.296	1506.365
607.284	31.654	1534.816	1503.483
608.299	31.580	1533.443	1501.358
609.313	31.343	1531.034	1496.915
610.328	31.191	1529.341	1493.855
611.342	31.212	1528.113	1492.643
612.357	31.178	1526.876	1490.990
613.372	30.913	1525.267	1487.108
614.386	30.577	1524.112	1483.116
615.401	30.514	1523.750	1482.076
616.415	30.274	1521.837	1478.115
617.430	29.994	1520.988	1474.871
618.445	29.881	1518.252	1471.147
619.459	29.788	1517.487	1469.485
620.474	29.703	1516.815	1467.980
621.488	30.114	1517.587	1471.826
622.503	31.181	1516.577	1479.175
623.518	30.413	1514.353	1470.719
624.532	29.745	1511.782	1462.741
625.547	29.604	1510.275	1459.989
626.561	29.695	1509.479	1459.762
627.576	29.549	1509.204	1458.167
628.591	29.884	1508.508	1459.974
629.605	30.214	1508.012	1461.939
630.620	30.773	1508.155	1466.330
631.634	31.528	1508.024	1471.999
632.649	31.620	1506.541	1471.099
633.663	30.944	1503.340	1462.466
634.678	30.204	1501.169	1454.355
635.693	29.678	1499.011	1447.949
636.707	29.659	1496.840	1445.528
637.722	29.695	1496.834	1445.632
638.736	30.089	1497.282	1448.985
639.751	30.762	1496.900	1453.727
640.766	30.978	1495.614	1454.003
641.780	30.915	1494.154	1451.910
642.795	31.369	1493.914	1455.058
643.809	31.361	1493.855	1454.767
644.824	31.544	1493.058	1455.249
645.839	31.782	1492.570	1456.454
646.853	31.720	1490.766	1454.035
647.868	31.598	1488.776	1450.973
648.882	31.322	1486.992	1446.910
649.897	31.200	1485.260	1444.101
650.912	31.022	1484.259	1441.578
651.926	31.040	1483.846	1441.143
652.941	31.255	1482.318	1441.151
653.955	31.047	1479.931	1437.050
654.970	30.284	1477.748	1428.855
655.985	29.968	1476.121	1424.667
656.999	29.721	1474.614	1421.130
658.014	29.988	1473.664	1422.112
659.028	30.305	1473.839	1424.555
660.043	30.903	1473.915	1429.068
661.058	30.946	1473.081	1428.424
662.072	31.211	1471.577	1428.833
663.087	31.086	1470.125	1426.289
664.101	30.843	1469.355	1423.503
665.116	30.994	1468.752	1423.912
666.131	31.017	1467.600	1422.799
667.145	31.422	1466.313	1424.486
668.160	31.276	1465.272	1422.184
669.174	31.167	1463.067	1419.044
670.189	31.288	1462.536	1419.278
671.204	31.448	1462.594	1420.386
672.218	31.404	1461.586	1418.900
673.233	31.551	1459.958	1418.275
674.247	31.380	1458.874	1415.751
675.262	31.073	1458.006	1412.399
676.276	31.052	1456.924	1411.024
677.291	31.096	1456.310	1410.595
678.306	31.413	1455.575	1412.118
679.320	31.363	1452.882	1408.959
680.335	30.818	1452.108	1403.915
681.349	30.937	1451.413	1403.975
682.364	31.042	1449.940	1403.175
683.379	30.838	1448.046	1399.630
684.393	30.264	1446.652	1393.781
685.408	30.291	1445.324	1392.539
686.422	30.189	1444.021	1390.348
687.437	29.976	1443.025	1387.620
688.452	29.724	1442.114	1384.681
689.466	29.593	1440.184	1381.678
690.481	29.602	1438.515	1379.977
691.495	29.873	1438.046	1381.397
692.510	30.864	1438.873	1389.466
693.525	31.661	1438.364	1394.779
694.539	31.007	1436.160	1387.581
695.554	29.916	1434.399	1377.560
696.568	29.558	1432.944	1373.317
697.583	29.495	1432.063	1371.838
698.598	29.799	1431.528	1373.429
699.612	29.847	1430.853	1372.977
700.627	30.138	1429.820	1373.995
701.641	30.707	1429.330	1377.589
702.656	30.839	1428.738	1377.840
703.671	30.983	1427.808	1377.845
704.685	30.936	1427.868	1377.390
705.700	30.995	1426.378	1376.227
706.714	30.767	1423.838	1371.924
707.729	30.727	1422.541	1370.208
708.744	30.666	1421.208	1368.314
709.758	30.459	1419.177	1364.665
710.773	29.977	1417.891	1359.709
711.787	29.781	1416.866	1357.115
712.802	30.427	1415.503	1360.411
713.816	30.711	1415.054	1361.901
714.831	30.709	1414.765	1361.448
715.846	30.611	1413.478	1359.327
716.860	30.583	1412.505	1358.024
717.875	30.548	1411.065	1356.220
718.889	30.403	1410.284	1354.243
719.904	30.287	1409.059	1352.054
720.919	30.373	1407.837	1351.351
721.933	30.128	1406.401	1348.020
722.948	30.126	1405.735	1347.203
723.962	30.350	1404.542	1347.536
724.977	30.257	1403.761	1345.942
725.992	30.412	1403.064	1346.249
727.006	30.787	1402.677	1348.447
728.021	30.709	1400.795	1345.909
729.035	30.687	1399.537	1344.376
730.050	30.796	1398.344	1343.859
731.065	30.892	1397.297	1343.391
732.079	30.680	1396.204	1340.639
733.094	30.600	1395.797	1339.511
734.108	30.890	1394.293	1340.003
735.123	30.727	1392.682	1337.122
736.138	30.637	1391.574	1335.245
737.152	30.464	1390.272	1332.593
738.167	30.420	1389.146	1331.036
739.181	30.535	1388.597	1331.178
740.196	30.654	1387.644	1330.962
741.211	30.408	1386.635	1328.062
742.225	30.250	1385.774	1325.947
743.240	30.183	1384.078	1323.683
744.254	29.977	1381.939	1320.005
745.269	29.660	1380.744	1316.434
746.284	29.479	1379.966	1314.237
747.298	29.281	1378.881	1311.632
748.313	29.598	1377.588	1312.508
749.327	30.017	1378.304	1316.028
750.342	30.696	1379.205	1321.585
751.356	31.690	1378.172	1327.523
752.371	31.393	1376.393	1323.533
753.386	30.181	1373.455	1311.934
754.400	29.909	1372.856	1309.276
755.415	30.371	1372.598	1312.152
756.429	30.700	1370.603	1312.426
757.444	30.903	1369.356	1312.506
758.459	30.708	1368.580	1310.232
759.473	30.375	1367.236	1306.430
760.488	30.038	1365.769	1302.489
761.502	29.958	1364.464	1300.526
762.517	30.096	1363.631	1300.549
763.532	30.232	1362.598	1300.367
764.546	29.975	1361.111	1296.984
765.561	29.563	1359.565	1292.458
766.575	29.314	1357.823	1288.897
767.590	29.082	1357.700	1286.993
768.605	29.847	1356.840	1291.393
769.619	30.090	1355.842	1291.994
770.634	30.012	1355.522	1290.986
771.648	29.872	1354.019	1288.421
772.663	29.743	1352.609	1286.029
773.678	30.008	1352.491	1287.615
774.692	30.226	1352.522	1289.008
775.707	30.380	1351.726	1289.175
776.721	30.399	1350.607	1288.082
777.736	30.307	1348.988	1285.742
778.751	30.107	1348.985	1284.195
779.765	30.243	1347.505	1283.582
780.780	30.286	1346.590	1282.849
781.794	30.368	1345.561	1282.290
782.809	29.948	1344.027	1277.758
783.824	29.453	1342.431	1272.661
784.838	29.617	1341.819	1273.063
785.853	30.390	1342.141	1278.570
786.867	30.267	1340.404	1275.913
787.882	29.536	1339.484	1269.833
788.897	29.416	1338.017	1267.458
789.911	29.348	1336.939	1265.817
790.926	29.404	1335.482	1264.675
791.940	29.589	1333.720	1264.127
792.955	29.548	1332.311	1262.355
793.969	29.505	1332.080	1261.691
794.984	29.642	1331.969	1262.375
795.999	29.898	1330.973	1263.037
797.013	30.054	1329.855	1262.892
798.028	29.957	1329.082	1261.346
799.042	30.108	1327.812	1261.019
800.057	30.018	1326.972	1259.460
801.072	30.140	1324.688	1257.969
802.086	30.107	1324.222	1257.153
803.101	30.006	1323.477	1255.608
804.115	30.066	1321.376	1253.868
805.130	29.873	1321.062	1252.107
806.145	29.832	1319.233	1249.948
807.159	29.670	1317.863	1247.400
808.174	29.795	1317.363	1247.629
809.188	29.888	1316.326	1247.123
810.203	29.655	1315.085	1244.222
811.218	29.608	1312.784	1241.577
812.232	29.186	1311.370	1237.249
813.247	29.060	1309.677	1234.652
814.261	29.545	1310.149	1238.217
815.276	29.693	1309.490	1238.442
816.291	29.538	1308.395	1236.220
817.305	29.451	1307.505	1234.642
818.320	29.514	1306.523	1233.989
819.334	29.795	1305.684	1234.937
820.349	29.855	1304.463	1234.035
821.364	29.864	1303.056	1232.620
822.378	29.962	1301.614	1231.761
823.393	29.823	1300.157	1229.311
824.407	29.978	1298.809	1228.919
825.422	29.730	1298.455	1226.784
826.437	29.636	1297.507	1225.117
827.451	29.418	1295.495	1221.618
828.466	29.761	1295.067	1223.353
829.480	30.182	1293.838	1224.838
830.495	29.925	1290.660	1219.982
831.509	29.332	1289.744	1215.044
832.524	29.441	1289.666	1215.550
833.539	29.479	1289.243	1215.251
834.553	29.940	1287.099	1216.132
835.568	29.779	1286.025	1213.906
836.582	29.668	1285.693	1212.718
837.597	29.830	1284.193	1212.225
838.612	29.574	1282.777	1209.058
839.626	29.413	1281.516	1206.667
840.641	29.307	1280.297	1204.679
841.655	29.284	1279.253	1203.399
842.670	28.785	1278.887	1199.640
843.685	28.732	1277.115	1197.489
844.699	29.248	1275.251	1198.972
845.714	29.376	1274.360	1198.829
846.728	29.227	1274.220	1197.576
847.743	29.139	1273.639	1196.316
848.758	29.312	1272.576	1196.299
849.772	29.730	1270.805	1197.214
850.787	29.718	1269.383	1195.651
851.801	29.616	1268.248	1193.778
852.816	29.480	1267.772	1192.306
853.831	29.462	1265.938	1190.318
854.845	29.598	1264.358	1189.570
855.860	29.266	1263.279	1186.267
856.874	29.169	1262.355	1184.629
857.889	29.302	1261.227	1184.287
858.904	29.749	1260.189	1186.059
859.918	30.245	1259.700	1188.649
860.933	30.525	1258.688	1189.353
861.947	30.195	1256.694	1185.204
862.962	29.564	1255.021	1179.436
863.977	29.416	1253.720	1177.122
864.991	29.280	1252.791	1175.238
866.006	29.158	1253.374	1174.863
867.020	29.194	1252.026	1173.688
868.035	29.433	1251.035	1174.148
869.049	29.403	1249.981	1172.829
870.064	29.736	1248.901	1173.801
871.079	29.621	1247.792	1171.888
872.093	29.417	1246.703	1169.426
873.108	29.261	1246.121	1167.741
874.122	29.172	1244.518	1165.535
875.137	29.092	1243.557	1163.985
876.152	28.888	1242.507	1161.568
877.166	28.936	1241.121	1160.443
878.181	28.904	1240.164	1159.205
879.195	29.010	1239.606	1159.215
880.210	29.160	1239.161	1159.609
881.225	29.437	1238.086	1160.213
882.239	29.322	1237.105	1158.427
883.254	29.379	1236.180	1157.785
884.268	29.683	1235.012	1158.470
885.283	29.587	1233.535	1156.342
886.298	29.592	1231.919	1154.721
887.312	29.389	1231.450	1152.865
888.327	29.539	1230.147	1152.451
889.341	29.558	1228.786	1151.152
890.356	29.390	1228.666	1149.850
891.371	29.352	1228.201	1149.040
892.385	29.474	1227.348	1148.868
893.400	29.229	1226.876	1146.756
894.414	29.239	1225.314	1145.222
895.429	29.503	1224.262	1145.748
896.444	30.274	1224.476	1150.623
897.458	31.064	1224.397	1155.329
898.473	30.587	1222.425	1150.362
899.487	29.809	1220.572	1143.648
900.502	29.247	1218.756	1138.322
901.517	29.233	1216.950	1136.415
902.531	29.435	1216.067	1136.704
903.546	29.384	1215.714	1135.921
904.560	29.376	1215.662	1135.687
905.575	29.229	1214.587	1133.641
906.589	29.305	1213.323	1132.795
907.604	29.309	1211.789	1131.249
