DTS Sentinel unit serial number:	SN409020Multiplexer serial number:	ORYXHardware model number:	OX4-SRSoftware version number:	ORYX F/W v3.00 Oryx Data Collector v3.7.2.0data status	okinstallation	HaddamTimeLapsedifferential loss correction	single-endedforward channel	channel 3reverse channel	N/Adate	2011/06/21time	16:01:17forward acquisition time	30.00reverse acquisition time	0.00gamma	498.7831k internal	0.1797k external	0.1797temperature offset calibration	1.0074default loss term (dB/km)	0.3790temperature slope calibration	1.3530multiplexer offset coefficient	1.0000multiplexer slope coefficient	1.0000fibre end	0.00T internal ref (°C)	35.31T ext. ref 1 (°C)	26.57T ext. ref 2 (°C)	0.22length (m)	temperature (°C)	Stokes	anti-Stokes-747.200	259.879	-0.164	-0.369
-746.185	335.243	-0.108	0.273
-745.171	-140.821	0.322	-0.043
-744.156	-55.109	0.236	-0.137
-743.142	78.044	0.296	-0.409
-742.127	117.239	0.249	0.397
-741.112	-17.589	0.136	0.110
-740.098	-200.000	-0.106	0.767
-739.083	-114.037	-0.493	-0.123
-738.069	559.513	-0.097	0.304
-737.054	340.292	0.186	-0.471
-736.039	107.770	-0.076	0.117
-735.025	259.042	0.075	0.167
-734.010	-72.639	-0.372	0.177
-732.996	-159.407	0.070	-0.005
-731.981	-167.010	-0.259	-0.013
-730.966	217.888	-0.108	-0.223
-729.952	-7.800	-0.082	-0.071
-728.937	-77.150	-0.447	0.201
-727.923	-96.259	-0.335	-0.114
-726.908	-140.181	-0.275	0.037
-725.894	-200.000	-0.023	-0.196
-724.879	-50.636	-0.520	-0.316
-723.864	-10.076	-0.340	-0.292
-722.850	-115.027	0.150	-0.036
-721.835	-200.000	0.046	0.270
-720.821	50.592	-0.152	-0.186
-719.806	-149.133	0.380	0.039
-718.791	-48.683	0.572	0.355
-717.777	-200.000	0.073	-0.434
-716.762	-98.409	-0.253	0.083
-715.748	800.000	-0.065	0.245
-714.733	129.700	0.082	0.135
-713.718	-200.000	-0.001	0.213
-712.704	106.426	0.214	0.329
-711.689	263.776	0.089	0.200
-710.675	-95.702	0.280	0.096
-709.660	259.568	0.240	-0.539
-708.645	-132.019	-0.169	0.028
-707.631	-49.899	-0.254	0.155
-706.616	-99.243	-0.270	0.088
-705.602	-189.548	-0.509	0.007
-704.587	163.137	0.174	0.317
-703.572	-137.946	0.283	-0.040
-702.558	-200.000	-0.004	0.112
-701.543	-60.134	0.182	-0.100
-700.529	-200.000	0.060	-0.778
-699.514	31.152	-0.106	-0.117
-698.499	318.039	0.029	0.071
-697.485	138.550	0.197	-0.335
-696.470	800.000	0.104	-0.548
-695.456	-81.708	0.078	-0.033
-694.441	22.711	-0.337	0.356
-693.426	-149.634	-0.223	0.022
-692.412	403.571	-0.147	-0.401
-691.397	-67.955	0.197	-0.099
-690.383	82.294	0.130	-0.183
-689.368	-107.918	-0.150	0.042
-688.354	25.489	-0.242	-0.260
-687.339	800.000	-0.043	-0.171
-686.324	-59.091	-0.186	0.103
-685.310	98.859	0.196	0.293
-684.295	-94.032	-0.331	-0.117
-683.281	30.478	-0.246	0.271
-682.266	-113.450	-0.487	0.122
-681.251	-156.780	0.192	-0.015
-680.237	800.000	0.021	-0.094
-679.222	-84.326	0.520	-0.211
-678.208	40.009	0.039	0.045
-677.193	-79.790	-0.454	0.196
-676.178	-59.915	0.360	-0.198
-675.164	-98.725	-0.291	0.095
-674.149	313.907	0.060	0.147
-673.135	553.643	0.106	0.332
-672.120	49.686	0.118	-0.144
-671.105	47.087	0.230	-0.276
-670.091	-131.620	0.551	0.093
-669.076	-124.234	-0.198	0.040
-668.062	14.826	-0.133	0.135
-667.047	178.059	-0.126	0.239
-666.032	211.580	0.041	-0.085
-665.018	656.003	-0.095	-0.317
-664.003	-200.000	-0.072	-0.500
-662.989	-99.343	-0.189	0.061
-661.974	800.000	-0.180	-0.692
-660.959	-200.000	-0.016	0.206
-659.945	-94.129	-0.370	-0.130
-658.930	357.809	0.050	0.129
-657.916	408.007	0.098	-0.270
-656.901	691.768	-0.070	-0.239
-655.886	-158.751	-0.634	-0.046
-654.872	-84.217	-0.258	0.105
-653.857	-54.393	-0.532	0.310
-652.843	-29.545	-0.463	0.341
-651.828	252.633	-0.119	0.263
-650.814	-72.609	0.533	-0.253
-649.799	168.429	0.024	0.045
-648.784	176.409	0.098	-0.183
-647.770	112.498	0.215	-0.336
-646.755	-107.564	-0.269	0.075
-645.741	-167.071	0.211	-0.011
-644.726	-159.256	0.217	0.016
-643.711	-64.767	-0.194	-0.101
-642.697	-200.000	0.045	-0.259
-641.682	616.521	-0.074	-0.242
-640.668	-13.212	0.086	0.072
-639.653	-200.000	-0.029	-0.322
-638.638	-200.000	-0.072	-0.625
-637.624	344.411	0.078	-0.199
-636.609	-144.023	0.382	-0.046
-635.595	800.000	0.083	0.362
-634.580	-7.225	0.075	0.065
-633.565	-10.836	-0.168	0.143
-632.551	-128.306	-0.537	0.098
-631.536	-26.507	-0.138	0.104
-630.522	800.000	-0.032	0.159
-629.507	-16.123	-0.138	0.113
-628.492	-13.910	0.291	-0.242
-627.478	32.860	-0.096	0.107
-626.463	-126.784	-0.206	0.039
-625.449	-87.009	-0.137	-0.054
-624.434	-22.443	-0.487	0.379
-623.419	192.721	-0.310	0.606
-622.405	-200.000	0.020	0.436
-621.390	181.195	0.138	-0.262
-620.376	42.251	0.389	0.456
-619.361	800.000	-0.069	0.333
-618.346	-200.000	0.045	-0.417
-617.332	54.854	-0.258	-0.322
-616.317	-112.230	-0.334	0.086
-615.303	800.000	-0.061	-0.274
-614.288	35.324	-0.141	0.159
-613.273	-58.152	-0.365	0.204
-612.259	540.315	-0.335	1.032
-611.244	94.251	-0.134	0.197
-610.230	800.000	-0.093	0.402
-609.215	49.117	-0.214	0.259
-608.201	-38.682	-0.193	-0.131
-607.186	590.351	-0.126	0.402
-606.171	230.112	-0.083	-0.176
-605.157	-98.266	-0.449	-0.147
-604.142	-32.753	0.163	-0.116
-603.128	109.068	0.056	-0.086
-602.113	-89.192	0.259	0.098
-601.098	-6.619	0.505	0.442
-600.084	-47.760	0.458	-0.285
-599.069	800.000	0.055	-0.242
-598.055	800.000	-0.089	-0.326
-597.040	-41.492	0.305	0.202
-596.025	421.293	0.100	-0.277
-595.011	-179.850	-0.575	0.016
-593.996	267.832	0.218	-0.494
-592.982	-200.000	-0.500	0.002
-591.967	133.428	-0.169	0.282
-590.952	-200.000	0.048	-0.485
-589.938	-200.000	0.004	-0.163
-588.923	-170.382	0.158	0.007
-587.909	-88.900	-0.332	-0.126
-586.894	-200.000	0.001	0.106
-585.879	358.522	0.061	-0.157
-584.865	249.682	-0.025	0.054
-583.850	-95.754	-0.222	0.076
-582.836	-139.879	0.169	0.023
-581.821	-80.315	0.194	0.083
-580.806	350.771	-0.215	0.549
-579.792	-67.096	0.488	0.246
-578.777	-89.078	0.229	0.087
-577.763	-161.652	-0.182	-0.012
-576.748	-132.053	-0.398	-0.066
-575.733	800.000	0.056	0.260
-574.719	-53.182	-0.200	-0.118
-573.704	633.050	0.007	0.022
-572.690	-102.333	-0.278	-0.085
-571.675	-86.475	0.368	-0.144
-570.661	12.670	0.224	-0.223
-569.646	458.583	0.095	-0.272
-568.631	-69.419	0.362	0.178
-567.617	-4.242	0.685	-0.609
-566.602	-37.676	-0.387	0.264
-565.588	-20.302	-0.243	0.192
-564.573	-200.000	0.029	-0.250
-563.558	-200.000	-0.006	-0.393
-562.544	800.000	0.040	-0.201
-561.529	-104.648	-0.334	0.098
-560.515	-108.650	-0.330	0.090
-559.500	111.721	-0.245	-0.381
-558.485	335.031	0.028	-0.070
-557.471	800.000	0.079	-0.294
-556.456	-54.599	-0.139	-0.081
-555.442	91.976	-0.182	0.264
-554.427	-200.000	0.054	-0.323
-553.412	800.000	-0.051	0.221
-552.398	-200.000	-0.031	0.273
-551.383	-13.532	0.146	-0.121
-550.369	-200.000	0.017	0.336
-549.354	-183.796	-0.160	-0.003
-548.339	-8.319	0.248	0.214
-547.325	-143.955	0.381	-0.046
-546.310	622.108	-0.082	-0.266
-545.296	105.106	0.361	-0.548
-544.281	589.838	0.160	-0.510
-543.266	67.643	-0.058	0.076
-542.252	13.054	0.190	-0.189
-541.237	-186.730	-0.375	0.007
-540.223	-138.293	-0.293	0.041
-539.208	52.697	0.078	-0.095
-538.193	-64.101	0.273	0.142
-537.179	-155.142	0.391	-0.032
-536.164	56.389	-0.285	-0.356
-535.150	217.732	-0.123	0.252
-534.135	-200.000	0.023	0.273
-533.121	-101.208	-0.664	-0.207
-532.106	-46.182	0.060	0.038
-531.091	309.134	0.188	-0.454
-530.077	-200.000	0.052	-0.396
-529.062	-142.187	-0.530	0.067
-528.048	-68.774	-0.075	-0.037
-527.033	-2.679	0.378	0.339
-526.018	-57.847	0.293	-0.164
-525.004	-6.394	-0.274	-0.240
-523.989	-99.671	-0.053	-0.017
-522.975	148.770	0.205	-0.357
-521.960	70.455	-0.035	-0.046
-520.945	-200.000	0.056	0.481
-519.931	-61.912	-0.040	-0.021
-518.916	-32.909	-0.401	-0.285
-517.902	-71.427	0.270	0.129
-516.887	-141.425	-0.506	-0.065
-515.872	-15.027	0.301	-0.247
-514.858	-153.882	-0.189	0.016
-513.843	-200.000	-0.028	-0.850
-512.829	-123.916	-0.616	0.124
-511.814	205.521	0.194	0.388
-510.799	71.517	-0.254	-0.339
-509.785	-54.876	0.532	-0.307
-508.770	-66.980	-0.476	0.240
-507.756	-152.419	-0.279	-0.025
-506.741	294.986	0.171	-0.404
-505.726	-15.072	-0.041	0.034
-504.712	-3.990	-0.237	0.211
-503.697	-93.325	0.324	0.115
-502.683	83.397	-0.251	0.351
-501.668	20.873	-0.293	0.305
-500.653	69.782	0.366	0.484
-499.639	-200.000	0.054	0.415
-498.624	241.857	-0.195	-0.419
-497.610	-98.345	-0.147	-0.048
-496.595	-137.127	0.181	0.026
-495.581	-177.357	0.130	0.004
-494.566	385.814	-0.083	-0.220
-493.551	-65.725	0.156	-0.080
-492.537	800.000	0.054	0.249
-491.522	-49.764	0.402	-0.244
-490.508	-84.329	0.570	-0.230
-489.493	79.492	-0.149	0.205
-488.478	38.430	-0.182	-0.208
-487.464	-47.898	-0.358	-0.221
-486.449	-0.677	-0.032	0.029
-485.435	130.965	-0.211	-0.348
-484.420	49.151	0.060	0.073
-483.405	443.388	0.037	-0.103
-482.391	-6.826	0.189	0.164
-481.376	-200.000	0.039	0.230
-480.362	-116.564	-0.305	0.071
-479.347	-200.000	-0.033	-0.227
-478.332	-174.295	0.272	0.010
-477.318	548.820	-0.121	-0.372
-476.303	-87.104	0.641	-0.249
-475.289	-43.378	0.198	0.128
-474.274	800.000	0.115	0.505
-473.259	129.680	-0.139	0.229
-472.245	-25.171	-0.235	0.178
-471.230	-52.602	-0.101	0.060
-470.216	-200.000	-0.057	0.358
-469.201	-57.675	-0.316	0.177
-468.186	800.000	0.018	0.097
-467.172	-2.318	0.254	0.228
-466.157	71.119	-0.218	0.290
-465.143	-84.466	-0.323	-0.130
-464.128	197.615	-0.310	0.609
-463.113	214.678	0.278	0.566
-462.099	285.111	-0.055	0.127
-461.084	-147.590	-0.596	-0.063
-460.070	-144.722	0.288	-0.034
-459.055	40.786	0.171	0.197
-458.040	800.000	0.043	0.175
-457.026	-119.644	0.230	-0.050
-456.011	-21.841	0.135	-0.105
-454.997	6.787	0.419	-0.399
-453.982	677.000	-0.079	-0.264
-452.968	92.508	0.196	-0.283
-451.953	-200.000	0.043	-0.368
-450.938	19.675	0.153	0.158
-449.924	-39.522	0.285	-0.191
-448.909	-200.000	-0.022	0.200
-447.895	361.705	-0.238	0.614
-446.880	38.562	-0.381	0.435
-445.865	-123.620	0.036	0.007
-444.851	-8.267	0.242	-0.208
-443.836	-171.063	0.238	-0.010
-442.822	252.002	-0.024	0.053
-441.807	-41.747	0.246	0.161
-440.792	-31.782	0.153	0.109
-439.778	-153.716	-0.180	-0.016
-438.763	-200.000	-0.007	-0.281
-437.749	800.000	0.095	-0.423
-436.734	-200.000	-0.005	0.099
-435.719	6.717	0.476	-0.453
-434.705	290.888	0.157	-0.366
-433.690	106.886	-0.088	0.134
-432.676	413.017	0.053	-0.145
-431.661	-200.000	-0.033	-0.311
-430.646	128.499	0.199	-0.325
-429.632	800.000	0.058	-0.248
-428.617	-64.657	-0.298	0.154
-427.603	106.724	0.202	-0.307
-426.588	76.916	-0.178	-0.241
-425.573	-130.825	0.057	0.010
-424.559	-200.000	0.028	0.190
-423.544	-22.087	-0.089	-0.069
-422.530	-188.237	-0.120	0.002
-421.515	140.274	0.130	0.219
-420.500	-9.319	-0.235	0.200
-419.486	-80.803	0.204	0.086
-418.471	-75.734	-0.347	-0.157
-417.457	-121.913	-0.284	0.059
-416.442	576.637	-0.079	-0.247
-415.428	-200.000	-0.634	0.002
-414.413	800.000	-0.028	0.136
-413.398	151.541	-0.153	0.267
-412.384	-52.410	0.318	0.187
-411.369	66.677	-0.326	0.424
-410.355	50.975	-0.031	-0.038
-409.340	171.622	-0.061	0.113
-408.325	800.000	-0.114	0.437
-407.311	-200.000	-0.051	0.354
-406.296	49.016	0.053	-0.064
-405.282	-52.981	-0.078	0.046
-404.267	139.834	-0.187	0.315
-403.252	52.367	0.092	0.113
-402.238	75.732	0.270	-0.365
-401.223	-101.315	-0.347	0.108
-400.209	602.865	0.030	0.095
-399.194	-200.000	0.010	0.229
-398.179	-140.819	-0.443	-0.058
-397.165	-200.000	0.027	0.592
-396.150	-152.997	0.311	0.028
-395.136	555.002	0.121	0.373
-394.121	-26.555	-0.276	-0.206
-393.106	-86.583	-0.326	0.127
-392.092	118.036	0.126	0.199
-391.077	103.343	0.274	0.412
-390.063	-200.000	0.022	0.473
-389.048	-200.000	-0.025	0.246
-388.033	-101.149	-0.251	0.078
-387.019	-34.910	-0.395	0.275
-386.004	-200.000	-0.027	-0.277
-384.990	44.734	-0.240	-0.282
-383.975	-40.199	-0.287	0.190
-382.960	317.907	0.135	0.328
-381.946	-200.000	-0.012	-0.181
-380.931	-156.674	-0.256	0.020
-379.917	128.240	-0.250	0.408
-378.902	168.239	0.154	-0.280
-377.888	-200.000	-0.009	-0.521
-376.873	68.870	0.046	-0.061
-375.858	58.058	-0.053	-0.067
-374.844	7.344	-0.354	0.337
-373.829	273.138	0.062	0.140
-372.815	265.959	0.162	0.363
-371.800	88.791	-0.135	0.192
-370.785	-8.121	-0.212	-0.182
-369.771	-200.000	0.038	-0.229
-368.756	-99.218	-0.263	0.084
-367.742	-106.024	0.103	-0.029
-366.727	-181.809	0.507	-0.012
-365.712	-8.292	0.411	-0.352
-364.698	-199.031	-0.349	0.002
-363.683	-49.881	-0.032	0.019
-362.669	-107.732	0.262	-0.072
-361.654	-8.595	0.224	-0.191
-360.639	-58.688	0.090	-0.050
-359.625	-111.998	-0.237	-0.061
-358.610	31.161	0.110	-0.120
-357.596	-44.126	0.292	-0.187
-356.581	-14.216	0.527	0.433
-355.566	459.357	-0.131	0.374
-354.552	-143.057	0.139	-0.017
-353.537	-44.410	0.321	0.204
-352.523	-200.000	0.004	0.463
-351.508	180.626	-0.039	-0.072
-350.493	-17.243	0.351	0.282
-349.479	-49.128	0.418	0.254
-348.464	45.444	0.290	-0.341
-347.450	7.533	0.092	0.087
-346.435	-96.091	0.468	-0.158
-345.420	61.702	-0.258	-0.327
-344.406	-200.000	0.047	-0.360
-343.391	-174.665	0.581	0.021
-342.377	-98.397	0.700	-0.227
-341.362	-145.820	0.544	-0.061
-340.348	125.740	-0.263	-0.425
-339.333	-200.000	0.007	-0.160
-338.318	-119.495	0.684	0.150
-337.304	60.213	-0.408	0.515
-336.289	189.642	0.089	-0.171
-335.275	-200.000	0.013	-0.427
-334.260	-91.146	-0.298	0.108
-333.245	-161.223	-0.089	-0.006
-332.231	-200.000	-0.004	-0.230
-331.216	-43.968	0.273	0.174
-330.202	-30.160	0.044	0.032
-329.187	800.000	0.054	-0.300
-328.172	75.047	-0.212	0.285
-327.158	-200.000	0.030	-0.225
-326.143	-107.287	-0.266	0.074
-325.129	-37.604	0.211	-0.143
-324.114	247.387	-0.231	0.498
-323.099	-200.000	-0.036	0.368
-322.085	16.202	0.198	-0.199
-321.070	-137.876	0.230	-0.032
-320.056	180.389	0.072	-0.135
-319.041	-178.334	0.251	0.007
-318.026	168.370	0.078	-0.142
-317.012	-115.354	0.151	-0.036
-315.997	-69.001	0.437	0.214
-314.983	-16.769	-0.418	0.336
-313.968	-116.271	-0.103	0.024
-312.953	81.656	0.179	-0.247
-311.939	-200.000	0.023	-0.324
-310.924	-27.146	-0.423	-0.313
-309.910	-200.000	-0.031	0.202
-308.895	-173.770	-0.104	0.004
-307.880	800.000	0.104	-0.568
-306.866	-5.157	-0.179	-0.157
-305.851	-80.157	-0.320	0.136
-304.837	130.126	0.128	0.209
-303.822	-38.123	0.264	0.178
-302.807	-200.000	-0.016	0.157
-301.793	494.114	-0.140	-0.411
-300.778	242.316	-0.152	-0.325
-299.764	93.336	-0.269	-0.387
-298.749	-200.000	0.005	0.269
-297.735	-200.000	0.020	-0.132
-296.720	-172.960	0.487	-0.019
-295.705	-35.492	0.203	0.140
-294.691	-5.631	0.167	-0.145
-293.676	-200.000	-0.090	0.539
-292.662	610.756	-0.064	-0.203
-291.647	21.164	0.417	-0.430
-290.632	32.358	0.222	-0.244
-289.618	-110.521	0.469	0.123
-288.603	393.425	-0.158	0.421
-287.589	-200.000	-0.021	0.352
-286.574	-135.443	-0.218	0.033
-285.559	116.543	-0.125	0.195
-284.545	800.000	0.078	0.346
-283.530	-30.141	0.512	0.369
-282.516	18.153	0.209	0.212
-281.501	-128.457	0.472	0.084
-280.486	54.971	0.152	0.187
-279.472	-200.000	0.018	0.146
-278.457	18.846	-0.370	-0.377
-277.443	-160.756	0.373	0.025
-276.428	-200.000	-0.081	0.635
-275.413	160.426	0.067	-0.119
-274.399	29.181	-0.266	-0.286
-273.384	-200.000	0.090	0.654
-272.370	-168.330	-0.405	0.020
-271.355	47.014	-0.080	-0.095
-270.340	-82.884	0.425	-0.173
-269.326	227.664	-0.031	-0.064
-268.311	-91.163	0.413	0.149
-267.297	800.000	-0.128	0.598
-266.282	-200.000	-0.010	-0.131
-265.267	113.308	0.123	0.189
-264.253	-81.697	-0.230	0.095
-263.238	-178.891	-0.167	-0.005
-262.224	-200.000	0.038	0.840
-261.209	-177.200	-0.331	0.010
-260.195	-22.628	-0.224	-0.171
-259.180	-58.771	-0.100	-0.055
-258.165	-200.000	-0.032	0.314
-257.151	-5.835	-0.405	0.352
-256.136	-160.487	0.261	-0.018
-255.122	23.903	0.309	0.324
-254.107	680.018	0.052	0.171
-253.092	-88.171	0.225	-0.085
-252.078	-200.000	0.024	0.142
-251.063	66.145	-0.044	0.057
-250.049	-145.142	0.330	-0.038
-249.034	428.993	-0.161	-0.445
-248.019	-108.870	-0.164	0.044
-247.005	800.000	0.032	-0.145
-245.990	666.000	-0.074	0.244
-244.976	-200.000	0.019	0.130
-243.961	-172.265	0.093	0.004
-242.946	-15.772	0.094	-0.076
-241.932	-111.093	-0.183	0.047
-240.917	-181.880	-0.241	-0.006
-239.903	-38.474	0.484	-0.324
-238.888	248.822	0.156	-0.336
-237.873	15.087	0.144	0.143
-236.859	-136.002	0.504	-0.074
-235.844	-68.128	0.126	0.062
-234.830	-200.000	0.024	-0.179
-233.815	-3.532	-0.490	-0.432
-232.800	-3.375	-0.224	-0.197
-231.786	-151.501	-0.123	-0.011
-230.771	-71.686	-0.183	0.087
-229.757	-112.572	-0.364	0.091
-228.742	103.704	0.294	-0.439
-227.727	-131.048	0.537	0.090
-226.713	-140.749	-0.133	-0.017
-225.698	274.943	0.017	-0.039
-224.684	-200.000	0.024	0.179
-223.669	79.673	-0.100	0.137
-222.655	244.378	-0.230	0.493
-221.640	444.699	-0.094	0.262
-220.625	800.000	-0.058	0.242
-219.611	800.000	-0.113	0.557
-218.596	90.773	-0.179	0.254
-217.582	9.622	0.344	-0.330
-216.567	77.006	0.063	0.086
-215.552	19.783	-0.144	-0.147
-214.538	295.930	0.166	-0.388
-213.523	-46.714	0.238	-0.147
-212.509	-124.649	0.376	0.073
-211.494	10.481	0.226	-0.218
-210.479	-24.906	-0.414	-0.311
-209.465	-179.966	-0.581	0.015
-208.450	170.666	-0.237	-0.432
-207.436	164.653	-0.165	0.296
-206.421	-91.019	-0.156	0.056
-205.406	-4.565	-0.545	-0.476
-204.392	-69.830	-0.424	-0.204
-203.377	272.170	-0.027	0.060
-202.363	800.000	0.047	-0.186
-201.348	144.769	-0.317	-0.538
-200.333	289.635	0.231	-0.533
-199.319	-108.930	0.315	0.085
-198.304	-200.000	-0.069	-0.451
-197.290	-109.815	0.250	0.066
-196.275	34.467	-0.153	0.170
-195.260	-87.905	0.501	-0.190
-194.246	800.000	0.111	-0.571
-193.231	-42.660	-0.161	-0.104
-192.217	-171.590	-0.638	-0.026
-191.202	30.634	0.182	0.197
-190.187	406.801	0.014	0.037
-189.173	-76.092	0.207	-0.092
-188.158	25.434	-0.310	0.327
-187.144	-53.736	-0.251	-0.145
-186.129	-2.468	0.159	0.141
-185.114	15.314	0.032	0.031
-184.100	-64.855	-0.286	-0.146
-183.085	-51.121	0.237	0.141
-182.071	-200.000	0.003	0.075
-181.056	23.958	-0.165	-0.172
-180.042	-91.850	0.100	0.036
-179.027	-18.849	0.363	0.286
-178.012	-81.791	0.190	0.078
-176.998	-105.348	-0.137	0.039
-175.983	-200.000	0.019	-0.176
-174.969	570.225	0.073	0.225
-173.954	172.448	0.099	0.180
-172.939	84.806	-0.096	0.134
-171.925	-200.000	-0.014	-0.281
-170.910	237.507	0.080	0.169
-169.896	-150.087	0.024	0.002
-168.881	278.027	-0.106	-0.240
-167.866	375.016	-0.170	-0.440
-166.852	-159.975	0.412	0.028
-165.837	-200.000	-0.061	0.402
-164.823	-89.153	0.340	-0.126
-163.808	186.032	0.222	-0.418
-162.793	-37.097	-0.242	-0.163
-161.779	-96.857	-0.264	-0.087
-160.764	800.000	0.026	0.105
-159.750	-181.136	0.228	0.006
-158.735	-154.647	-0.177	-0.015
-157.720	356.770	-0.072	-0.181
-156.706	203.010	0.121	-0.237
-155.691	47.311	-0.372	-0.439
-154.677	183.373	-0.064	-0.120
-153.662	231.333	-0.222	-0.462
-152.647	-137.974	-0.154	-0.021
-151.633	-119.945	0.368	-0.079
-150.618	-55.654	0.344	-0.194
-149.604	-139.016	0.546	-0.074
-148.589	121.252	-0.105	0.166
-147.574	141.886	0.131	-0.220
-146.560	800.000	-0.033	0.154
-145.545	-200.000	-0.055	0.363
-144.531	213.201	0.075	0.150
-143.516	325.966	-0.093	0.225
-142.502	-73.193	-0.358	-0.165
-141.487	213.741	-0.038	0.077
-140.472	-49.279	-0.252	0.152
-139.458	284.259	-0.146	0.334
-138.443	-200.000	0.037	0.521
-137.429	-51.403	-0.418	-0.246
-136.414	298.822	0.236	0.552
-135.399	-91.297	0.368	-0.133
-134.385	-86.775	0.078	-0.030
-133.370	537.945	-0.154	-0.465
-132.356	-130.182	-0.290	0.050
-131.341	120.446	-0.104	0.163
-130.326	-113.142	-0.120	0.030
-129.312	-190.795	0.558	0.007
-128.297	242.728	-0.144	0.306
-127.283	513.667	0.070	0.208
-126.268	-200.000	0.017	0.502
-125.253	117.308	0.184	0.286
-124.239	-200.000	-0.058	0.351
-123.224	-200.000	0.058	0.341
-122.210	262.201	0.124	-0.272
-121.195	-73.493	-0.116	0.053
-120.180	713.879	0.041	0.137
-119.166	64.983	0.196	0.250
-118.151	-34.411	0.204	-0.141
-117.137	-143.265	0.267	-0.032
-116.122	-181.595	-0.585	-0.014
-115.107	160.057	-0.159	-0.281
-114.093	-111.426	0.209	-0.053
-113.078	330.191	0.164	-0.401
-112.064	43.041	-0.438	-0.504
-111.049	-145.868	-0.121	-0.013
-110.034	800.000	0.080	-0.362
-109.020	-53.969	-0.506	0.290
-108.005	-129.717	0.152	0.026
-106.991	-94.590	-0.079	0.027
-105.976	-131.103	0.147	0.024
-104.962	-132.710	0.258	0.041
-103.947	-200.000	0.037	0.659
-102.932	621.347	-0.083	-0.265
-101.918	100.464	-0.188	-0.275
-100.903	582.853	-0.146	0.456
-99.889	40.302	-0.258	0.293
-98.874	708.987	-0.043	0.143
-97.859	132.896	0.195	-0.318
-96.845	-83.156	0.203	-0.082
-95.830	-3.556	0.176	0.154
-94.816	-31.356	-0.177	0.125
-93.801	81.831	-0.227	-0.310
-92.786	654.812	0.042	0.137
-91.772	-85.317	0.513	-0.201
-90.757	800.000	-0.074	0.400
-89.743	-52.461	-0.274	-0.160
-88.728	800.000	-0.112	0.487
-87.713	-136.527	0.397	-0.058
-86.699	52.745	-0.155	0.187
-85.684	-200.000	0.015	-0.180
-84.670	60.642	0.162	-0.202
-83.655	-15.282	0.298	0.240
-82.640	-123.365	-0.254	0.051
-81.626	-100.172	-0.452	-0.141
-80.611	608.143	-0.023	0.074
-79.597	-46.268	0.283	0.175
-78.582	726.681	0.141	-0.476
-77.567	-24.313	-0.041	0.031
-76.553	-161.208	0.100	0.006
-75.538	-200.000	0.010	0.252
-74.524	235.414	-0.226	0.472
-73.509	184.058	-0.205	0.385
-72.494	139.322	-0.069	-0.115
-71.480	-90.977	-0.621	-0.224
-70.465	479.636	-0.064	0.184
-69.451	32.369	-0.271	-0.295
-68.436	142.258	0.204	0.343
-67.422	-200.000	-0.067	-0.505
-66.407	-122.163	-0.459	0.094
-65.392	-49.149	0.293	0.176
-64.378	-76.334	0.298	0.132
-63.363	-97.785	-0.231	-0.075
-62.349	-200.000	0.013	0.504
-61.334	-17.600	-1.442	-1.141
-60.319	800.000	0.237	0.901
-59.305	345.676	-2.569	-6.391
-58.290	-18.421	3.581	2.815
-57.276	430.703	3.697	10.136
-56.261	-200.000	14.653	236.951
-55.246	437.213	1198.319	3306.803
-54.232	59.153	2844.116	3530.491
-53.217	67.797	2724.781	3513.407
-52.203	42.043	2450.312	2803.422
-51.188	42.168	2096.218	2399.711
-50.173	37.676	1967.816	2201.722
-49.159	36.118	1957.376	2172.312
-48.144	35.838	1953.660	2164.935
-47.130	35.683	1951.456	2160.661
-46.115	35.632	1950.528	2158.968
-45.100	35.678	1948.289	2156.931
-44.086	35.609	1947.021	2154.665
-43.071	35.760	1944.905	2153.931
-42.057	35.641	1943.901	2151.398
-41.042	35.532	1942.621	2148.668
-40.027	35.496	1942.414	2147.949
-39.013	35.563	1940.295	2146.269
-37.998	35.537	1938.957	2144.422
-36.984	35.463	1937.642	2142.047
-35.969	35.469	1937.155	2141.486
-34.954	35.526	1934.420	2139.025
-33.940	35.397	1934.048	2137.081
-32.925	35.461	1932.864	2136.405
-31.911	35.520	1930.756	2134.642
-30.896	35.487	1929.895	2133.238
-29.881	35.492	1928.022	2131.145
-28.867	35.498	1926.845	2129.824
-27.852	35.387	1925.846	2127.396
-26.838	35.281	1924.165	2124.277
-25.823	35.247	1922.438	2121.903
-24.809	35.257	1921.633	2121.041
-23.794	35.367	1919.901	2120.275
-22.779	35.361	1919.761	2119.964
-21.765	35.321	1918.367	2117.899
-20.750	35.272	1916.994	2115.760
-19.736	35.365	1915.334	2114.866
-18.721	35.120	1915.097	2111.804
-17.706	35.243	1912.902	2110.664
-16.692	35.300	1911.062	2109.188
-15.677	35.223	1909.828	2106.886
-14.663	35.169	1909.198	2105.513
-13.648	35.264	1907.107	2104.167
-12.633	35.203	1905.942	2102.124
-11.619	35.224	1905.338	2101.611
-10.604	35.216	1903.064	2098.934
-9.590	35.111	1903.191	2097.829
-8.575	35.137	1901.909	2096.624
-7.560	35.101	1900.809	2094.930
-6.546	35.063	1899.267	2092.734
-5.531	35.199	1897.233	2091.894
-4.517	35.179	1896.950	2091.287
-3.502	35.149	1895.205	2088.943
-2.487	35.174	1895.124	2089.046
-1.473	35.187	1891.517	2085.137
-0.458	34.718	1869.629	2055.854
0.556	29.516	2002.444	2128.904
1.571	27.200	2215.922	2325.838
2.586	28.416	2261.352	2389.182
3.600	28.452	2264.170	2392.350
4.615	28.499	2263.706	2392.187
5.629	28.433	2261.431	2388.637
6.644	28.358	2260.203	2386.063
7.659	28.348	2259.334	2384.730
8.673	28.569	2256.955	2384.834
9.688	28.201	2261.643	2384.680
10.702	25.816	2334.536	2428.953
11.717	23.015	2398.999	2456.655
12.731	11.758	2370.080	2270.524
13.746	1.863	2343.467	2107.731
14.761	0.459	2338.796	2083.783
15.775	0.208	2337.000	2078.462
16.790	0.091	2336.367	2076.024
17.804	0.195	2333.190	2074.390
18.819	0.224	2332.206	2073.671
19.834	0.191	2330.289	2071.260
20.848	0.136	2329.409	2069.466
21.863	0.192	2327.940	2068.686
22.877	0.196	2325.667	2066.484
23.892	0.163	2323.818	2064.129
24.907	0.214	2321.101	2062.176
25.921	0.236	2319.154	2060.503
26.936	0.251	2316.821	2058.382
27.950	0.079	2315.609	2054.710
28.965	0.167	2312.706	2053.089
29.980	0.199	2312.123	2052.763
30.994	0.313	2309.605	2051.841
32.009	6.197	2329.003	2149.860
33.023	19.105	2367.373	2364.307
34.038	24.455	2378.925	2449.565
35.053	25.171	2376.829	2456.977
36.067	25.318	2374.559	2456.365
37.082	25.328	2371.593	2453.139
38.096	25.226	2370.152	2449.956
39.111	25.467	2369.027	2451.807
40.126	25.720	2367.472	2453.368
41.140	25.916	2365.689	2453.907
42.155	25.747	2363.575	2449.114
43.169	25.672	2361.852	2446.002
44.184	25.644	2358.598	2441.955
45.199	25.535	2356.546	2438.056
46.213	25.635	2355.031	2437.558
47.228	25.635	2354.450	2436.675
48.242	25.560	2352.480	2433.318
49.257	25.653	2351.182	2432.942
50.271	25.752	2349.718	2432.482
51.286	25.849	2346.728	2430.410
52.301	25.751	2343.915	2425.881
53.315	26.136	2346.230	2433.202
54.330	28.252	2351.154	2466.709
55.344	29.706	2351.366	2486.320
56.359	29.851	2348.410	2484.847
57.374	29.833	2346.980	2482.795
58.388	29.687	2343.909	2477.283
59.403	29.534	2339.437	2470.204
60.417	29.365	2336.439	2464.479
61.432	29.494	2335.300	2464.709
62.447	29.325	2333.698	2460.457
63.461	29.373	2330.795	2457.740
64.476	29.427	2328.479	2455.728
65.490	29.631	2327.609	2457.243
66.505	29.263	2325.883	2450.209
67.520	27.699	2319.611	2422.448
68.534	25.933	2311.922	2390.612
69.549	25.560	2307.548	2380.846
70.563	25.529	2305.210	2377.735
71.578	25.437	2303.845	2374.825
72.593	25.581	2302.208	2374.766
73.607	25.667	2300.548	2373.904
74.622	25.601	2299.646	2371.816
75.636	25.674	2296.016	2368.750
76.651	25.599	2293.902	2365.294
77.666	25.697	2291.321	2363.649
78.680	25.667	2289.531	2361.120
79.695	25.743	2288.042	2360.309
80.709	25.797	2286.360	2358.994
81.724	25.803	2284.969	2357.362
82.739	25.768	2282.405	2353.974
83.753	25.713	2280.781	2351.290
84.768	25.665	2278.618	2348.152
85.782	25.521	2277.263	2344.586
86.797	25.497	2275.484	2342.160
87.812	25.454	2273.579	2339.362
88.826	25.418	2271.233	2336.191
89.841	25.492	2269.832	2335.444
90.855	25.592	2266.371	2332.896
91.870	25.540	2264.958	2330.486
92.884	25.561	2263.347	2328.825
93.899	25.607	2262.717	2328.499
94.914	25.797	2264.477	2332.507
95.928	27.286	2268.355	2355.622
96.943	27.970	2266.848	2362.659
97.957	26.604	2260.191	2337.733
98.972	25.692	2255.635	2320.919
99.987	25.557	2251.385	2314.533
101.001	25.486	2248.259	2310.121
102.016	25.518	2246.922	2308.880
103.030	25.495	2245.052	2306.392
104.045	25.557	2242.868	2304.670
105.060	25.874	2240.364	2305.890
106.074	25.872	2237.957	2303.117
107.089	25.780	2236.654	2300.313
108.103	25.517	2236.795	2296.816
109.118	25.699	2235.351	2297.388
110.133	25.681	2234.064	2295.554
111.147	25.703	2231.138	2292.564
112.162	25.645	2229.051	2289.399
113.176	25.718	2227.271	2288.235
114.191	25.734	2224.796	2285.623
115.206	25.648	2224.090	2283.525
116.220	25.663	2221.441	2280.724
117.235	25.520	2219.972	2277.118
118.249	25.618	2217.625	2275.684
119.264	25.720	2215.875	2274.913
120.279	25.659	2214.422	2272.380
121.293	25.574	2212.528	2269.083
122.308	25.578	2211.020	2267.313
123.322	25.537	2209.977	2265.452
124.337	25.648	2209.683	2266.288
125.352	27.336	2215.383	2293.257
126.366	28.145	2213.914	2301.707
127.381	26.507	2205.121	2271.643
128.395	25.591	2201.127	2255.713
129.410	25.674	2198.224	2253.513
130.424	25.559	2197.340	2250.880
131.439	25.706	2196.147	2251.240
132.454	25.535	2194.800	2247.438
133.468	25.689	2192.730	2246.993
134.483	25.881	2191.083	2247.436
135.497	25.989	2190.084	2247.496
136.512	26.030	2187.938	2245.538
137.527	26.002	2184.627	2241.519
138.541	25.712	2183.991	2236.978
139.556	25.691	2183.539	2235.982
140.570	25.716	2180.904	2233.333
141.585	25.686	2179.336	2231.085
142.600	25.686	2178.590	2230.051
143.614	25.641	2176.189	2226.776
144.629	25.543	2174.581	2223.637
145.643	25.713	2173.325	2224.206
146.658	25.724	2170.737	2221.425
147.673	25.496	2168.549	2216.094
148.687	25.564	2167.043	2215.136
149.702	25.670	2166.533	2215.663
150.716	25.732	2165.889	2215.497
151.731	25.622	2164.756	2212.715
152.746	25.642	2163.386	2211.298
153.760	25.919	2164.319	2215.406
154.775	27.259	2167.897	2235.373
155.789	27.999	2166.487	2242.781
156.804	26.695	2158.614	2218.326
157.819	25.470	2153.026	2197.282
158.833	25.318	2150.497	2192.572
159.848	25.628	2149.343	2194.933
160.862	25.778	2147.613	2194.738
161.877	25.910	2146.294	2194.749
162.892	25.985	2146.419	2195.522
163.906	26.213	2144.748	2196.339
164.921	26.222	2143.090	2194.497
165.935	26.005	2140.679	2189.113
166.950	26.067	2138.741	2187.629
167.964	26.012	2137.013	2184.923
168.979	25.822	2135.002	2180.300
169.994	25.765	2132.891	2177.181
171.008	25.484	2131.572	2172.166
172.023	25.475	2129.345	2169.523
173.037	25.550	2128.853	2169.674
174.052	25.766	2127.404	2170.558
175.067	25.629	2125.510	2166.709
176.081	25.636	2123.481	2164.469
177.096	25.668	2123.033	2164.136
178.110	25.611	2122.059	2162.192
179.125	25.687	2119.718	2160.471
180.140	25.713	2118.778	2159.571
181.154	25.806	2117.471	2159.097
182.169	25.776	2116.364	2157.344
183.183	26.149	2117.505	2162.746
184.198	28.070	2121.209	2189.414
185.213	28.313	2118.516	2189.297
186.227	26.267	2111.982	2157.745
187.242	25.459	2108.796	2144.546
188.256	25.513	2105.895	2141.982
189.271	25.539	2104.336	2140.446
190.286	25.591	2102.992	2139.447
191.300	25.546	2101.567	2137.202
192.315	25.574	2098.322	2133.990
193.329	25.775	2097.545	2135.340
194.344	25.997	2096.631	2136.791
195.359	26.069	2096.020	2136.767
196.373	26.042	2094.459	2134.609
197.388	25.936	2090.688	2129.245
198.402	25.788	2088.920	2125.435
199.417	25.894	2087.339	2124.825
200.432	26.020	2085.664	2124.364
201.446	25.842	2084.045	2120.347
202.461	25.664	2082.204	2116.127
203.475	25.521	2080.456	2112.401
204.490	25.540	2077.798	2109.674
205.504	25.623	2076.083	2108.656
206.519	25.733	2073.450	2107.023
207.534	25.785	2072.452	2106.373
208.548	25.751	2071.245	2104.492
209.563	25.570	2070.448	2101.305
210.577	25.724	2069.299	2101.702
211.592	25.747	2068.589	2100.998
212.607	26.194	2070.047	2107.466
213.621	27.234	2072.553	2121.968
214.636	27.304	2069.387	2119.300
215.650	26.093	2064.665	2100.048
216.665	25.684	2061.047	2091.348
217.680	25.858	2059.100	2091.143
218.694	25.613	2058.087	2087.012
219.709	25.685	2056.319	2085.806
220.723	25.872	2054.894	2086.289
221.738	26.052	2053.364	2086.579
222.753	26.036	2051.541	2084.294
223.767	25.873	2049.431	2080.010
224.782	25.662	2047.976	2075.840
225.796	25.711	2046.653	2074.812
226.811	25.858	2045.104	2074.697
227.826	26.209	2043.539	2076.919
228.840	25.846	2042.885	2071.813
229.855	25.647	2041.769	2068.133
230.869	25.791	2039.029	2066.767
231.884	25.514	2037.839	2062.123
232.899	25.564	2036.717	2061.312
233.913	25.680	2035.293	2060.967
234.928	25.709	2034.050	2059.796
235.942	25.707	2031.629	2057.071
236.957	25.603	2029.991	2053.972
237.972	25.560	2029.054	2052.283
238.986	25.405	2027.915	2049.108
240.001	25.337	2025.561	2045.709
241.015	25.336	2024.563	2044.441
242.030	25.880	2025.730	2051.607
243.045	27.656	2030.649	2076.693
244.059	28.518	2027.562	2083.129
245.074	26.573	2020.314	2053.289
246.088	25.787	2016.172	2039.890
247.103	25.885	2014.688	2039.253
248.117	25.815	2013.050	2036.560
249.132	25.700	2011.399	2033.338
250.147	25.702	2009.009	2030.701
251.161	25.624	2008.064	2028.616
252.176	25.741	2007.298	2028.929
253.190	25.761	2004.351	2025.936
254.205	25.761	2002.304	2023.616
255.220	25.654	2001.431	2021.286
256.234	25.631	2001.244	2020.600
257.249	25.577	1999.837	2018.329
258.263	25.811	1997.712	2018.574
259.278	25.915	1997.277	2019.062
260.293	25.726	1995.359	2014.756
261.307	25.624	1994.221	2012.219
262.322	25.626	1992.964	2010.739
263.336	25.547	1990.937	2007.566
264.351	25.357	1988.911	2003.149
265.366	25.480	1987.878	2003.253
266.380	25.503	1986.285	2001.661
267.395	25.333	1984.649	1997.869
268.409	25.345	1983.872	1996.987
269.424	25.463	1983.100	1997.284
270.439	25.696	1981.855	1998.395
271.453	26.140	1982.638	2003.903
272.468	27.843	1985.396	2025.455
273.482	28.117	1982.281	2025.084
274.497	26.273	1975.316	1997.259
275.512	25.653	1971.227	1986.006
276.526	25.514	1968.976	1981.967
277.541	25.489	1967.665	1980.135
278.555	25.393	1965.244	1976.395
279.570	25.338	1963.113	1973.411
280.585	25.386	1962.215	1972.795
281.599	25.477	1961.199	1972.549
282.614	25.473	1960.525	1971.583
283.628	25.747	1960.683	1974.537
284.643	26.010	1959.251	1975.753
285.657	25.935	1957.527	1972.953
286.672	25.840	1955.336	1969.458
287.687	25.734	1953.356	1966.072
288.701	25.532	1951.724	1961.980
289.716	25.480	1951.100	1960.545
290.730	25.559	1949.369	1959.438
291.745	25.713	1948.165	1959.669
292.760	25.914	1947.379	1960.845
293.774	25.611	1946.789	1956.706
294.789	25.619	1945.116	1954.873
295.803	25.638	1943.286	1953.014
296.818	25.535	1942.158	1950.518
297.833	25.627	1941.067	1950.196
298.847	25.601	1938.671	1947.275
299.862	25.527	1937.845	1945.401
300.876	25.949	1937.331	1949.237
301.891	27.993	1941.677	1975.617
302.906	28.418	1940.521	1978.816
303.920	26.443	1933.549	1950.087
304.935	25.687	1930.108	1938.211
305.949	25.678	1928.103	1935.863
306.964	25.905	1927.422	1937.404
307.979	25.777	1924.927	1933.280
308.993	25.579	1922.223	1928.204
310.008	25.587	1921.920	1927.755
311.022	25.908	1920.003	1929.054
312.037	25.727	1918.424	1925.294
313.052	25.590	1916.581	1921.741
314.066	25.694	1914.989	1921.023
315.081	25.674	1914.385	1919.978
316.095	25.755	1913.148	1919.374
317.110	25.744	1911.282	1917.152
318.125	25.673	1909.496	1914.375
319.139	25.477	1908.519	1911.068
320.154	25.513	1907.357	1910.065
321.168	25.475	1905.667	1907.735
322.183	25.664	1903.918	1907.768
323.197	25.793	1903.924	1908.923
324.212	25.786	1901.622	1906.313
325.227	25.587	1899.883	1902.224
326.241	25.452	1898.093	1898.771
327.256	25.613	1896.064	1898.225
328.270	25.641	1895.312	1897.536
329.285	25.631	1895.211	1897.110
330.300	25.964	1897.038	1902.236
331.314	27.560	1899.362	1921.268
332.329	28.098	1897.000	1924.339
333.343	26.270	1890.752	1898.491
334.358	25.558	1887.515	1887.498
335.373	25.634	1885.726	1886.284
336.387	25.588	1883.297	1883.151
337.402	25.527	1882.727	1881.716
338.416	25.589	1881.107	1880.523
339.431	25.657	1880.260	1880.159
340.446	25.730	1878.520	1878.961
341.460	25.882	1876.417	1878.223
342.475	25.985	1875.390	1878.050
343.489	25.680	1872.998	1872.241
344.504	25.602	1872.374	1870.583
345.519	25.659	1870.816	1869.395
346.533	25.709	1868.796	1867.669
347.548	25.675	1868.032	1866.330
348.562	25.601	1866.968	1864.276
349.577	25.760	1865.705	1864.440
350.592	25.918	1865.398	1865.563
351.606	26.008	1863.772	1864.649
352.621	25.984	1861.868	1862.266
353.635	25.715	1860.624	1858.006
354.650	25.469	1858.399	1853.014
355.665	25.644	1855.940	1852.150
356.679	25.525	1856.688	1851.442
357.694	25.598	1855.201	1850.501
358.708	25.469	1853.217	1846.965
359.723	26.147	1854.968	1855.498
360.738	27.701	1858.360	1874.730
361.752	27.656	1855.590	1871.250
362.767	26.351	1848.640	1850.604
363.781	25.566	1846.090	1839.751
364.796	25.499	1844.936	1837.697
365.810	25.464	1843.562	1835.749
366.825	25.537	1841.490	1834.216
367.840	25.392	1840.974	1831.996
368.854	25.434	1839.829	1831.063
369.869	25.424	1838.039	1828.960
370.883	25.496	1836.683	1828.137
371.898	25.433	1835.149	1825.739
372.913	25.237	1834.898	1823.269
373.927	25.534	1832.612	1823.817
374.942	25.613	1831.458	1823.248
375.956	25.629	1830.192	1821.939
376.971	25.563	1827.733	1818.602
377.986	25.639	1826.378	1817.801
379.000	25.709	1826.107	1818.026
380.015	25.666	1825.011	1816.285
381.029	25.772	1823.145	1815.284
382.044	25.703	1821.515	1812.747
383.059	25.906	1819.125	1812.197
384.073	25.701	1819.053	1809.836
385.088	25.521	1818.698	1807.454
386.102	25.680	1816.595	1806.751
387.117	25.796	1815.343	1806.452
388.132	25.777	1815.033	1805.741
389.146	26.130	1816.474	1810.512
390.161	27.694	1818.171	1827.756
391.175	27.948	1813.236	1825.126
392.190	26.447	1806.872	1803.478
393.205	25.845	1804.699	1795.067
394.219	25.855	1803.086	1793.347
395.234	25.643	1801.691	1789.619
396.248	25.491	1799.351	1785.564
397.263	25.438	1797.653	1783.143
398.278	25.463	1795.836	1781.375
399.292	25.417	1794.528	1779.410
400.307	25.584	1793.688	1780.025
401.321	25.586	1792.902	1779.046
402.336	25.730	1791.514	1778.892
403.350	25.788	1789.939	1777.691
404.365	25.698	1788.447	1775.098
405.380	25.614	1786.970	1772.594
406.394	25.611	1785.613	1771.004
407.409	25.544	1784.085	1768.611
408.423	25.461	1783.080	1766.582
409.438	25.633	1781.986	1766.988
410.453	25.692	1780.649	1766.034
411.467	25.498	1780.153	1763.416
412.482	25.443	1778.179	1760.706
413.496	25.418	1777.083	1759.161
414.511	25.463	1775.622	1757.952
415.526	25.506	1774.017	1756.578
416.540	25.525	1772.503	1755.050
417.555	25.624	1771.193	1754.510
418.569	25.637	1771.070	1754.307
419.584	25.532	1770.766	1752.765
420.599	25.430	1769.977	1750.780
421.613	25.314	1768.359	1747.835
422.628	25.254	1767.042	1745.737
423.642	25.240	1765.463	1743.834
424.657	25.157	1763.675	1741.049
425.672	25.154	1762.002	1739.157
426.686	25.396	1760.506	1739.833
427.701	25.530	1759.648	1740.078
428.715	25.814	1757.920	1740.922
429.730	25.872	1757.429	1740.787
430.745	25.657	1756.757	1737.830
431.759	25.611	1754.931	1735.370
432.774	25.513	1754.460	1733.745
433.788	24.904	1752.161	1725.365
434.803	24.488	1750.227	1719.233
435.818	24.530	1749.775	1718.989
436.832	24.500	1748.964	1717.692
437.847	24.249	1742.861	1709.078
438.861	15.311	1717.930	1599.126
439.876	3.452	1694.772	1464.671
440.890	0.629	1689.139	1432.743
441.905	0.248	1688.634	1428.508
442.920	0.302	1686.828	1427.329
443.934	0.365	1684.772	1426.014
444.949	0.240	1684.262	1424.227
445.963	0.206	1683.620	1423.183
446.978	0.106	1683.337	1421.830
447.993	0.027	1682.814	1420.466
449.007	0.236	1679.550	1419.521
450.022	0.342	1677.028	1418.225
451.036	0.282	1676.421	1416.967
452.051	1.399	1682.935	1432.898
453.066	11.946	1706.831	1554.089
454.080	22.758	1722.974	1672.146
455.095	25.731	1729.835	1706.987
456.109	27.807	1733.603	1730.306
457.124	28.565	1733.019	1736.731
458.139	28.298	1731.258	1732.223
459.153	28.024	1729.665	1727.819
460.168	27.864	1727.363	1723.789
461.182	27.661	1725.999	1720.303
462.197	27.653	1724.432	1718.457
463.212	27.444	1722.464	1714.308
464.226	27.450	1722.238	1713.936
465.241	27.857	1720.896	1716.240
466.255	28.087	1720.699	1718.009
467.270	28.165	1718.773	1716.621
468.285	27.844	1716.533	1711.150
469.299	27.767	1715.785	1709.476
470.314	27.885	1714.249	1708.856
471.328	27.918	1713.027	1707.742
472.343	27.983	1712.103	1707.223
473.358	27.857	1711.035	1704.774
474.372	27.938	1709.926	1704.222
475.387	27.927	1708.129	1702.130
476.401	27.784	1706.934	1699.398
477.416	27.668	1705.238	1696.421
478.430	28.023	1704.086	1698.380
479.445	27.917	1702.321	1695.431
480.460	27.733	1700.691	1691.893
481.474	27.739	1699.322	1690.388
482.489	27.916	1700.179	1692.678
483.503	28.091	1698.819	1692.752
484.518	28.239	1696.345	1691.461
485.533	28.215	1695.556	1690.245
486.547	28.372	1694.489	1690.444
487.562	28.831	1693.643	1693.648
488.576	28.758	1692.868	1691.988
489.591	28.696	1691.317	1689.664
490.606	28.590	1689.455	1686.625
491.620	28.364	1688.486	1683.368
492.635	28.750	1686.991	1685.233
493.649	28.815	1685.101	1683.741
494.664	28.147	1682.896	1675.192
495.679	27.504	1680.847	1667.047
496.693	27.777	1679.763	1668.274
497.708	28.216	1679.238	1671.590
498.722	28.645	1679.518	1675.607
499.737	28.720	1678.154	1674.731
500.752	28.573	1676.430	1671.467
501.766	28.121	1674.851	1665.550
502.781	28.428	1672.681	1666.003
503.795	28.332	1670.918	1663.170
504.810	28.309	1670.444	1662.287
505.825	28.558	1670.362	1664.279
506.839	28.644	1668.647	1663.154
507.854	28.456	1667.762	1660.362
508.868	28.516	1665.565	1658.518
509.883	28.449	1663.876	1656.033
510.898	28.491	1663.805	1656.146
511.912	28.344	1661.543	1652.362
512.927	28.062	1659.213	1647.290
513.941	28.070	1658.650	1646.606
514.956	28.331	1658.748	1648.874
515.971	29.084	1657.968	1654.706
516.985	29.043	1656.135	1652.311
518.000	28.757	1655.403	1648.804
519.014	28.841	1654.353	1648.318
520.029	28.844	1652.867	1646.663
521.043	28.611	1650.852	1642.361
522.058	28.428	1649.386	1639.062
523.073	28.404	1649.007	1638.276
524.087	28.914	1648.662	1642.320
525.102	28.946	1646.703	1640.453
526.116	28.564	1644.831	1634.974
527.131	28.411	1644.060	1632.644
528.146	28.913	1643.559	1636.436
529.160	28.992	1643.365	1636.754
530.175	29.078	1642.119	1636.090
531.189	29.317	1641.083	1636.989
532.204	29.409	1639.662	1636.200
533.219	28.919	1637.761	1629.742
534.233	28.209	1636.202	1621.678
535.248	28.392	1634.870	1621.790
536.262	29.037	1635.382	1627.840
537.277	29.405	1634.210	1629.751
538.292	29.471	1632.220	1628.156
539.306	29.175	1630.873	1623.995
540.321	29.290	1629.603	1623.555
541.335	29.200	1627.329	1620.293
542.350	29.199	1626.898	1619.663
543.365	29.530	1625.515	1621.012
544.379	29.782	1624.644	1622.175
545.394	29.777	1623.509	1620.804
546.408	29.021	1621.075	1611.527
547.423	28.361	1618.254	1602.732
548.438	28.275	1616.993	1600.531
549.452	28.616	1616.846	1603.187
550.467	28.845	1615.902	1604.074
551.481	28.900	1614.367	1602.839
552.496	29.213	1614.875	1605.890
553.511	29.641	1613.964	1608.539
554.525	29.582	1613.029	1606.899
555.540	29.591	1612.602	1606.358
556.554	29.564	1611.464	1604.801
557.569	29.483	1608.917	1601.369
558.583	29.187	1607.506	1597.191
559.598	29.114	1606.505	1595.365
560.613	29.266	1605.397	1595.400
561.627	29.323	1604.050	1594.362
562.642	29.393	1602.318	1593.063
563.656	29.514	1601.674	1593.275
564.671	29.455	1600.871	1591.778
565.686	29.513	1599.362	1590.591
566.700	29.232	1598.003	1586.618
567.715	29.200	1595.945	1584.107
568.729	29.362	1595.604	1584.977
569.744	29.673	1593.988	1585.869
570.759	29.865	1592.873	1586.217
571.773	29.702	1591.969	1583.730
572.788	29.807	1591.171	1583.651
573.802	29.626	1589.158	1579.901
574.817	29.550	1586.354	1576.273
575.832	29.683	1586.023	1576.896
576.846	29.607	1585.050	1575.084
577.861	29.544	1583.839	1573.151
578.875	29.431	1584.209	1572.368
579.890	29.750	1583.286	1573.990
580.905	29.945	1582.451	1574.642
581.919	30.089	1581.610	1574.846
582.934	30.074	1580.926	1573.844
583.948	30.142	1579.435	1572.756
584.963	29.955	1577.539	1569.086
585.978	29.449	1575.485	1562.548
586.992	29.508	1574.859	1562.242
588.007	30.054	1574.803	1566.646
589.021	29.641	1571.950	1560.109
590.036	28.930	1570.480	1552.437
591.051	29.469	1570.135	1556.483
592.065	30.088	1569.051	1560.460
593.080	30.240	1569.063	1561.571
594.094	30.367	1567.065	1560.468
595.109	29.630	1563.423	1550.438
596.123	29.098	1561.085	1543.459
597.138	29.522	1560.912	1546.675
598.153	29.689	1560.393	1547.375
599.167	29.584	1559.097	1545.021
600.182	29.641	1558.150	1544.382
601.196	29.716	1557.551	1544.235
602.211	29.883	1556.800	1544.705
603.226	30.095	1555.400	1544.905
604.240	30.234	1554.047	1544.543
605.255	30.419	1552.797	1544.656
606.269	30.331	1552.400	1543.342
607.284	30.223	1550.991	1540.856
608.299	30.166	1549.451	1538.666
609.313	29.977	1547.580	1535.053
610.328	30.031	1546.805	1534.551
611.342	30.129	1545.788	1534.172
612.357	30.224	1545.174	1534.164
613.372	30.303	1543.185	1532.662
614.386	29.988	1542.615	1529.303
615.401	30.059	1542.262	1529.354
616.415	30.099	1541.073	1528.326
617.430	30.083	1539.880	1526.825
618.445	30.109	1538.494	1525.482
619.459	30.210	1536.663	1524.320
620.474	29.975	1536.350	1521.888
621.488	29.988	1535.171	1520.646
622.503	30.153	1534.066	1520.731
623.518	30.218	1533.227	1520.253
624.532	30.489	1532.289	1521.369
625.547	30.295	1531.372	1518.680
626.561	30.332	1530.559	1517.995
627.576	30.260	1529.856	1516.525
628.591	30.412	1528.503	1516.252
629.605	30.567	1527.699	1516.543
630.620	30.752	1525.974	1516.170
631.634	30.471	1525.597	1513.307
632.649	30.715	1523.848	1513.390
633.663	30.884	1523.405	1514.147
634.678	30.736	1522.089	1511.453
635.693	30.685	1520.408	1509.184
636.707	30.314	1518.691	1504.279
637.722	30.371	1517.203	1503.090
638.736	30.586	1515.871	1503.334
639.751	30.543	1515.632	1502.569
640.766	30.503	1514.156	1500.602
641.780	30.420	1512.852	1498.457
642.795	30.419	1511.450	1496.884
643.809	30.488	1510.865	1496.684
644.824	30.601	1510.377	1496.933
645.839	30.590	1509.222	1495.516
646.853	30.684	1508.359	1495.247
647.868	30.467	1506.283	1491.257
648.882	30.298	1504.612	1488.066
649.897	30.262	1503.029	1486.031
650.912	30.384	1502.321	1486.135
651.926	30.662	1501.751	1487.628
652.941	30.571	1500.860	1485.836
653.955	30.067	1498.470	1479.249
654.970	29.522	1495.005	1471.281
655.985	29.364	1493.744	1468.604
656.999	29.564	1492.332	1468.642
658.014	29.764	1492.236	1469.965
659.028	30.166	1492.740	1473.502
660.043	30.662	1492.218	1476.765
661.058	30.834	1490.926	1476.680
662.072	30.720	1489.922	1474.606
663.087	30.291	1488.322	1469.427
664.101	30.264	1486.961	1467.698
665.116	30.276	1485.842	1466.509
666.131	30.567	1484.924	1467.734
667.145	30.504	1483.800	1465.952
668.160	30.557	1483.143	1465.545
669.174	30.690	1481.569	1464.869
670.189	30.813	1480.448	1464.558
671.204	30.660	1479.385	1462.122
672.218	30.645	1478.707	1461.156
673.233	30.824	1478.291	1461.982
674.247	31.074	1476.721	1462.226
675.262	31.072	1475.853	1461.179
676.276	30.979	1474.705	1459.136
677.291	30.830	1472.765	1455.870
678.306	30.715	1471.929	1453.967
679.320	30.616	1470.235	1451.340
680.335	30.461	1470.552	1450.268
681.349	30.653	1469.999	1451.054
682.364	30.780	1467.925	1449.822
683.379	30.806	1466.440	1448.391
684.393	30.652	1465.255	1445.839
685.408	30.598	1464.791	1444.787
686.422	30.509	1463.599	1442.746
687.437	30.516	1462.321	1441.366
688.452	30.598	1461.370	1440.901
689.466	30.477	1459.973	1438.408
690.481	30.621	1458.848	1438.246
691.495	30.666	1459.065	1438.633
692.510	30.765	1458.025	1438.204
693.525	30.695	1456.999	1436.481
694.539	30.878	1456.052	1436.791
695.554	30.908	1454.435	1435.259
696.568	30.646	1452.923	1431.564
697.583	30.655	1451.483	1430.043
698.598	30.464	1451.252	1428.170
699.612	30.657	1450.211	1428.463
700.627	30.698	1448.952	1427.374
701.641	30.802	1447.953	1427.015
702.656	30.902	1446.499	1426.184
703.671	31.069	1446.266	1427.069
704.685	31.022	1446.284	1426.551
705.700	30.921	1444.455	1423.803
706.714	30.871	1442.105	1420.933
707.729	30.780	1440.156	1418.146
708.744	30.820	1439.785	1417.918
709.758	30.917	1438.387	1417.111
710.773	30.335	1437.234	1411.361
711.787	30.031	1435.609	1407.275
712.802	30.553	1434.847	1410.338
713.816	30.755	1434.551	1411.421
714.831	31.027	1432.938	1411.734
715.846	31.021	1431.992	1410.586
716.860	31.044	1431.000	1409.614
717.875	30.948	1430.336	1408.066
718.889	30.649	1428.481	1403.804
719.904	30.654	1427.610	1402.814
720.919	30.842	1426.175	1402.659
721.933	30.877	1425.998	1402.584
722.948	30.793	1424.776	1400.580
723.962	30.875	1423.333	1399.611
724.977	30.957	1422.269	1399.018
725.992	31.043	1421.153	1398.401
727.006	31.244	1419.857	1398.475
728.021	31.116	1418.324	1395.836
729.035	31.106	1417.815	1395.085
730.050	31.049	1416.908	1393.599
731.065	30.933	1416.301	1391.965
732.079	31.013	1415.268	1391.388
733.094	30.818	1414.349	1388.853
734.108	30.933	1412.286	1387.524
735.123	30.884	1410.652	1385.382
736.138	30.850	1410.107	1384.431
737.152	31.030	1408.161	1383.697
738.167	31.067	1407.004	1382.667
739.181	31.099	1407.168	1382.903
740.196	31.082	1406.142	1381.606
741.211	30.934	1405.094	1379.305
742.225	30.870	1404.271	1377.855
743.240	30.900	1402.919	1376.591
744.254	30.768	1401.438	1373.992
745.269	30.733	1400.139	1372.296
746.284	30.612	1399.666	1370.771
747.298	30.517	1398.767	1369.020
748.313	30.816	1397.593	1369.920
749.327	31.087	1397.219	1371.392
750.342	31.196	1396.375	1371.204
751.356	31.130	1394.181	1368.397
752.371	30.956	1393.461	1366.246
753.386	30.948	1392.290	1364.874
754.400	30.887	1391.425	1363.419
755.415	30.944	1390.600	1362.862
756.429	31.136	1389.534	1363.064
757.444	31.146	1388.670	1362.127
758.459	31.071	1387.204	1359.977
759.473	30.987	1385.887	1357.913
760.488	30.813	1384.901	1355.511
761.502	30.888	1383.518	1354.541
762.517	30.853	1382.603	1353.226
763.532	31.068	1381.014	1353.081
764.546	30.995	1380.105	1351.492
765.561	30.539	1378.877	1346.809
766.575	29.772	1376.687	1338.925
767.590	29.793	1375.849	1338.109
768.605	30.581	1375.328	1343.161
769.619	30.967	1375.016	1345.501
770.634	30.967	1373.475	1343.830
771.648	31.062	1372.139	1343.048
772.663	30.794	1371.750	1340.571
773.678	30.911	1371.532	1341.040
774.692	31.042	1370.857	1341.168
775.707	30.997	1370.050	1339.891
776.721	31.127	1369.329	1339.967
777.736	31.095	1367.699	1337.982
778.751	31.157	1365.897	1336.506
779.765	31.056	1365.731	1335.457
780.780	30.901	1365.880	1334.325
781.794	30.904	1364.892	1333.218
782.809	30.816	1362.811	1330.400
783.824	30.477	1361.522	1326.544
784.838	30.637	1360.081	1326.133
785.853	30.894	1359.735	1327.479
786.867	31.080	1359.296	1328.219
787.882	30.995	1358.472	1326.645
788.897	30.707	1357.620	1323.598
789.911	30.590	1356.080	1321.101
790.926	30.523	1354.761	1319.181
791.940	30.580	1353.264	1317.973
792.955	30.709	1351.875	1317.379
793.969	30.686	1350.432	1315.653
794.984	30.821	1349.984	1316.018
795.999	30.924	1348.994	1315.624
797.013	31.004	1347.379	1314.461
798.028	30.855	1346.483	1312.372
799.042	30.901	1345.470	1311.554
800.057	30.985	1344.561	1311.103
801.072	30.987	1342.879	1309.325
802.086	30.993	1341.711	1308.070
803.101	30.905	1341.176	1306.769
804.115	31.021	1340.407	1306.686
805.130	31.037	1339.253	1305.513
806.145	30.835	1338.258	1302.968
807.159	30.706	1336.911	1300.592
808.174	30.932	1335.846	1300.989
809.188	30.977	1334.919	1300.246
810.203	30.777	1333.478	1297.285
811.218	30.845	1331.153	1295.343
812.232	30.360	1329.461	1290.155
813.247	29.974	1328.775	1286.637
814.261	30.404	1329.672	1290.359
815.276	30.787	1328.919	1292.148
816.291	30.758	1327.107	1290.029
817.305	30.540	1325.405	1286.703
818.320	30.798	1324.452	1287.420
819.334	30.712	1323.941	1286.168
820.349	30.925	1322.514	1286.103
821.364	30.839	1321.171	1284.050
822.378	30.954	1319.659	1283.221
823.393	30.972	1318.038	1281.616
824.407	30.697	1316.991	1278.546
825.422	30.979	1316.701	1280.055
826.437	30.786	1315.586	1277.492
827.451	30.651	1313.829	1274.700
828.466	30.739	1313.190	1274.537
829.480	31.013	1312.026	1275.137
830.495	31.041	1309.610	1272.825
831.509	30.596	1308.778	1268.817
832.524	30.584	1307.912	1267.745
833.539	30.624	1306.854	1266.839
834.553	30.717	1305.232	1265.753
835.568	30.671	1303.996	1264.086
836.582	30.731	1303.570	1263.933
837.597	30.824	1302.025	1262.916
838.612	30.869	1300.146	1261.245
839.626	30.644	1299.296	1258.742
840.641	30.730	1298.922	1258.817
841.655	30.574	1297.963	1256.673
842.670	30.211	1295.771	1251.936
843.685	29.523	1294.514	1245.910
844.699	30.119	1293.545	1248.868
845.714	30.535	1293.244	1251.244
846.728	30.344	1292.273	1248.858
847.743	30.655	1290.922	1249.504
848.758	30.507	1290.213	1247.673
849.772	30.618	1289.335	1247.419
850.787	30.692	1287.412	1245.911
851.801	30.590	1286.654	1244.344
852.816	30.648	1285.579	1243.544
853.831	30.684	1283.746	1241.861
854.845	30.833	1282.121	1241.141
855.860	30.431	1281.135	1237.344
856.874	30.462	1280.075	1236.382
857.889	30.569	1279.003	1235.915
858.904	30.978	1278.143	1237.667
859.918	31.147	1277.144	1237.676
860.933	31.048	1275.517	1235.291
861.947	30.948	1274.314	1233.315
862.962	30.680	1272.939	1230.055
863.977	30.550	1271.860	1228.003
864.991	30.308	1271.461	1225.865
866.006	30.490	1270.916	1226.400
867.020	30.442	1269.616	1224.678
868.035	30.552	1268.390	1224.079
869.049	30.460	1267.725	1222.681
870.064	30.621	1266.825	1222.728
871.079	30.704	1265.634	1221.980
872.093	30.540	1264.689	1219.840
873.108	30.603	1263.798	1219.249
874.122	30.453	1261.513	1215.913
875.137	30.389	1260.890	1214.745
876.152	30.037	1260.374	1211.788
877.166	30.138	1258.306	1210.318
878.181	30.044	1257.442	1208.731
879.195	30.180	1257.044	1209.092
880.210	30.258	1256.641	1209.072
881.225	30.424	1255.372	1208.795
882.239	30.489	1254.136	1207.884
883.254	30.396	1253.317	1206.342
884.268	30.473	1252.779	1206.179
885.283	30.476	1251.432	1204.760
886.298	30.631	1249.273	1203.545
887.312	30.422	1248.721	1201.510
888.327	30.375	1247.420	1199.806
889.341	30.485	1245.942	1198.960
890.356	30.423	1245.557	1198.044
891.371	30.343	1245.190	1197.026
892.385	30.329	1245.054	1196.661
893.400	30.181	1244.437	1194.964
894.414	30.249	1242.557	1193.459
895.429	30.486	1241.041	1193.393
896.444	30.616	1239.814	1192.908
897.458	30.654	1238.625	1191.865
898.473	30.543	1238.427	1190.814
899.487	30.396	1237.039	1188.395
900.502	30.107	1235.706	1185.113
901.517	30.253	1233.961	1184.238
902.531	30.359	1232.447	1183.320
903.546	30.184	1232.327	1181.940
904.560	30.319	1231.992	1182.340
905.575	30.197	1231.021	1180.490
906.589	30.218	1229.975	1179.479
907.604	30.318	1229.001	1179.045
