DTS Sentinel unit serial number:	SN409020Multiplexer serial number:	ORYXHardware model number:	OX4-SRSoftware version number:	ORYX F/W v3.00 Oryx Data Collector v3.7.2.0data status	okinstallation	HaddamTimeLapsedifferential loss correction	single-endedforward channel	channel 3reverse channel	N/Adate	2011/06/21time	14:06:17forward acquisition time	30.00reverse acquisition time	0.00gamma	498.7831k internal	0.1826k external	0.1826temperature offset calibration	1.0074default loss term (dB/km)	0.3790temperature slope calibration	1.3530multiplexer offset coefficient	1.0000multiplexer slope coefficient	1.0000fibre end	0.00T internal ref (°C)	37.62T ext. ref 1 (°C)	33.01T ext. ref 2 (°C)	0.25length (m)	temperature (°C)	Stokes	anti-Stokes-747.200	248.010	0.112	0.242
-746.185	-200.000	0.019	0.474
-745.171	243.522	0.191	-0.408
-744.156	-121.150	0.489	-0.104
-743.142	-55.537	-0.056	0.032
-742.127	4.998	0.455	0.426
-741.112	29.053	-0.214	0.231
-740.098	527.571	0.194	0.587
-739.083	-200.000	0.040	-0.231
-738.069	-107.622	-0.181	-0.050
-737.054	172.911	0.051	-0.093
-736.039	206.942	-0.009	-0.019
-735.025	-148.785	0.655	0.067
-734.010	-200.000	-0.049	0.502
-732.996	81.908	0.236	0.325
-731.981	-200.000	0.024	0.279
-730.966	106.972	0.207	0.314
-729.952	-76.839	-0.435	0.193
-728.937	-105.197	0.224	0.065
-727.923	-153.380	0.509	0.045
-726.908	-78.492	-0.249	-0.108
-725.894	-70.948	-0.221	-0.106
-724.879	418.422	0.018	0.050
-723.864	114.750	0.209	0.324
-722.850	15.955	-0.390	0.391
-721.835	-128.929	-0.249	0.044
-720.821	731.871	0.152	-0.520
-719.806	800.000	-0.090	-0.410
-718.791	-50.294	0.316	-0.189
-717.777	212.033	-0.063	-0.128
-716.762	-10.859	0.251	0.210
-715.748	-125.410	-0.314	0.060
-714.733	-30.870	-0.125	-0.090
-713.718	43.557	-0.253	-0.294
-712.704	182.938	-0.148	0.279
-711.689	55.405	0.607	-0.748
-710.675	-26.241	-0.505	-0.376
-709.660	-134.409	-0.481	-0.074
-708.645	217.176	-0.087	0.177
-707.631	439.691	-0.112	-0.311
-706.616	-90.754	-0.063	0.023
-705.602	-200.000	0.024	-0.216
-704.587	-200.000	-0.071	-0.720
-703.572	-200.000	0.025	-0.548
-702.558	800.000	0.068	0.278
-701.543	-69.320	0.168	-0.082
-700.529	260.963	0.156	0.346
-699.514	67.378	-0.071	-0.092
-698.499	800.000	-0.081	-0.392
-697.485	-142.603	-0.077	-0.009
-696.470	148.253	0.143	-0.246
-695.456	-141.757	-0.642	-0.081
-694.441	19.820	-0.234	-0.239
-693.426	-69.140	-0.135	-0.066
-692.412	145.042	0.072	0.123
-691.397	-161.814	0.695	-0.044
-690.383	-184.171	-0.344	-0.007
-689.368	-38.176	-0.225	-0.152
-688.354	-96.326	-0.141	-0.047
-687.339	-200.000	-0.040	-0.467
-686.324	-200.000	0.025	0.162
-685.310	23.799	-0.065	-0.068
-684.295	800.000	0.066	-0.279
-683.281	60.745	0.332	-0.418
-682.266	-103.393	0.140	-0.042
-681.251	-123.892	-0.104	0.021
-680.237	-200.000	0.017	0.184
-679.222	315.689	0.155	0.373
-678.208	-106.523	0.226	0.064
-677.193	198.048	0.150	-0.292
-676.178	-153.519	-0.540	0.047
-675.164	24.038	0.080	0.084
-674.149	-200.000	0.030	0.279
-673.135	-26.041	-0.376	0.280
-672.120	54.006	-0.313	0.383
-671.105	572.056	0.044	-0.137
-670.091	-200.000	0.065	0.465
-669.076	800.000	0.084	0.466
-668.062	-55.602	0.138	0.078
-667.047	-9.355	-0.258	0.219
-666.032	-24.545	-0.153	0.115
-665.018	-46.554	0.458	-0.284
-664.003	55.941	-0.042	-0.052
-662.989	-200.000	0.040	0.528
-661.974	11.609	0.199	0.194
-660.959	173.013	-0.086	-0.158
-659.945	-30.407	0.593	0.426
-658.930	531.804	-0.216	-0.652
-657.916	-150.865	-0.277	0.026
-656.901	-70.078	-0.406	-0.195
-655.886	-122.740	0.182	-0.037
-654.872	83.141	-0.282	-0.390
-653.857	359.266	-0.107	-0.273
-652.843	265.723	0.232	-0.515
-651.828	800.000	-0.087	-0.371
-650.814	-137.696	0.641	-0.091
-649.799	-200.000	0.015	-0.251
-648.784	157.831	0.095	-0.168
-647.770	-63.110	0.553	-0.289
-646.755	21.204	0.226	0.233
-645.741	-128.211	0.428	-0.077
-644.726	-6.126	0.289	-0.251
-643.711	567.795	-0.046	-0.142
-642.697	-109.157	0.244	-0.065
-641.682	360.014	0.098	0.250
-640.668	-87.179	0.239	-0.092
-639.653	8.132	0.208	0.198
-638.638	-65.997	0.378	-0.191
-637.624	-200.000	-0.004	-0.058
-636.609	-14.742	-0.195	-0.158
-635.595	36.475	-0.225	-0.251
-634.580	-200.000	-0.035	0.270
-633.565	-44.935	0.155	-0.098
-632.551	75.416	-0.405	-0.543
-631.536	-56.083	-0.259	0.146
-630.522	260.049	0.116	0.255
-629.507	-200.000	-0.005	-0.491
-628.492	-50.118	0.503	-0.301
-627.478	-106.649	-0.207	0.058
-626.463	-53.599	-0.297	0.172
-625.449	-100.320	0.429	-0.134
-624.434	56.745	0.249	-0.307
-623.419	-104.139	-0.263	0.077
-622.405	-168.570	0.165	-0.008
-621.390	-83.693	0.099	-0.040
-620.376	-104.148	-0.216	-0.063
-619.361	89.227	-0.117	0.166
-618.346	-11.449	0.125	-0.105
-617.332	-47.048	0.430	-0.265
-616.317	329.654	0.175	0.429
-615.303	-136.539	0.121	-0.018
-614.288	-81.608	0.371	-0.154
-613.273	175.749	0.119	0.219
-612.259	800.000	0.049	0.251
-611.244	-200.000	-0.029	0.197
-610.230	-200.000	-0.002	0.049
-609.215	-26.553	0.302	0.224
-608.201	-42.153	0.250	-0.162
-607.186	-112.002	-0.265	-0.067
-606.171	-110.602	-0.625	-0.163
-605.157	-147.463	0.149	0.016
-604.142	-100.261	0.146	0.046
-603.128	800.000	-0.065	-0.327
-602.113	800.000	-0.087	0.453
-601.098	-26.531	0.119	-0.088
-600.084	-48.034	-0.268	0.164
-599.069	-147.715	0.383	-0.040
-598.055	46.317	-0.544	-0.638
-597.040	154.646	-0.031	0.055
-596.025	800.000	-0.139	-0.528
-595.011	-200.000	-0.015	-0.115
-593.996	-160.949	0.538	-0.035
-592.982	800.000	-0.065	0.234
-591.967	-12.872	0.033	-0.027
-590.952	-42.370	0.151	0.097
-589.938	-47.894	-0.225	0.137
-588.923	-120.069	-0.217	0.047
-587.909	-76.888	-0.507	0.223
-586.894	30.169	-0.319	-0.344
-585.879	9.146	0.039	-0.037
-584.865	-44.149	-0.199	0.126
-583.850	35.378	-0.261	-0.290
-582.836	-150.412	-0.357	-0.034
-581.821	54.951	0.186	0.228
-580.806	24.515	-0.237	0.248
-579.792	285.956	-0.158	-0.362
-578.777	60.013	-0.032	-0.040
-577.763	800.000	-0.039	0.141
-576.748	51.814	0.085	-0.102
-575.733	50.488	0.158	0.189
-574.719	-131.931	0.244	0.040
-573.704	-143.400	0.776	-0.093
-572.690	442.887	-0.037	0.103
-571.675	90.647	0.213	0.302
-570.661	800.000	-0.015	0.056
-569.646	-200.000	-0.048	0.288
-568.631	800.000	-0.064	0.259
-567.617	-200.000	-0.004	0.128
-566.602	143.260	0.265	-0.447
-565.588	-200.000	0.070	-0.469
-564.573	215.961	-0.128	-0.258
-563.558	-87.456	-0.805	0.307
-562.544	-90.761	0.122	0.044
-561.529	309.726	-0.190	0.452
-560.515	-200.000	0.168	-0.001
-559.500	-164.605	0.250	-0.014
-558.485	-97.261	0.234	0.077
-557.471	46.068	0.082	-0.096
-556.456	492.144	-0.086	-0.250
-555.442	393.217	-0.228	-0.602
-554.427	87.356	-0.403	-0.565
-553.412	351.731	0.122	-0.307
-552.398	-53.274	0.277	0.160
-551.383	304.612	0.053	0.126
-550.369	20.331	0.323	-0.329
-549.354	740.818	0.073	0.251
-548.339	-143.937	0.255	-0.030
-547.325	-145.947	-0.358	0.040
-546.310	-30.233	0.316	-0.226
-545.296	108.275	0.377	0.569
-544.281	-30.596	0.447	-0.320
-543.266	0.747	0.197	0.178
-542.252	1.569	0.394	-0.358
-541.237	-26.056	0.191	0.141
-540.223	-130.113	0.042	0.007
-539.208	92.749	0.115	0.164
-538.193	-200.000	0.036	0.360
-537.179	800.000	0.029	-0.154
-536.164	-152.559	-0.142	-0.013
-535.150	-118.683	-0.427	-0.094
-534.135	-40.990	-0.334	0.218
-533.121	800.000	0.055	0.208
-532.106	116.895	0.043	-0.066
-531.091	-77.736	0.220	-0.095
-530.077	-200.000	0.070	-0.427
-529.062	-200.000	-0.003	-0.199
-528.048	-102.949	0.196	-0.058
-527.033	-18.390	0.240	0.189
-526.018	-200.000	-0.004	-0.025
-525.004	800.000	0.068	0.289
-523.989	-152.535	0.085	-0.008
-522.975	-200.000	-0.050	-0.336
-521.960	-63.687	0.498	0.257
-520.945	800.000	0.104	-0.386
-519.931	-112.574	0.326	0.082
-518.916	-200.000	-0.018	0.353
-517.902	-138.346	-0.299	-0.041
-516.887	-161.758	-0.219	0.014
-515.872	-63.014	-0.299	0.155
-514.858	61.490	-0.141	-0.177
-513.843	6.497	-0.135	-0.126
-512.829	185.194	-0.081	0.153
-511.814	111.205	0.078	0.118
-510.799	-54.299	-0.130	-0.074
-509.785	-146.948	-0.104	0.011
-508.770	-76.546	-0.497	0.219
-507.756	-22.960	0.082	-0.062
-506.741	-129.792	0.176	-0.030
-505.726	-34.202	-0.512	-0.354
-504.712	35.484	-0.380	0.421
-503.697	800.000	-0.050	0.185
-502.683	-200.000	0.012	-0.317
-501.668	657.895	0.066	0.215
-500.653	800.000	0.066	0.321
-499.639	-99.012	0.651	0.207
-498.624	-14.533	0.442	-0.358
-497.610	-86.637	0.508	0.195
-496.595	-92.069	-0.215	0.076
-495.581	-106.291	-0.181	-0.051
-494.566	-31.985	-0.489	0.345
-493.551	-81.120	-0.201	-0.083
-492.537	-135.730	-0.222	-0.033
-491.522	-200.000	0.018	0.252
-490.508	-47.054	0.183	0.112
-489.493	-164.078	-0.120	0.007
-488.478	8.040	-0.160	0.151
-487.464	58.131	0.108	-0.134
-486.449	-87.411	0.661	0.251
-485.435	-28.671	0.510	-0.369
-484.420	212.283	-0.223	-0.444
-483.405	-147.439	0.511	0.054
-482.391	-149.727	0.154	0.015
-481.376	94.607	-0.145	0.209
-480.362	-200.000	-0.592	0.001
-479.347	347.287	-0.189	0.472
-478.332	-142.591	-0.530	-0.065
-477.318	113.271	0.083	0.127
-476.303	-200.000	0.039	0.499
-475.289	-14.282	-0.211	-0.171
-474.274	322.115	-0.185	-0.447
-473.259	-7.715	-0.280	-0.239
-472.245	800.000	-0.046	-0.180
-471.230	353.747	0.221	-0.556
-470.216	-29.941	-0.159	0.114
-469.201	611.267	-0.233	-0.738
-468.186	-155.357	0.422	-0.034
-467.172	1.460	-0.229	0.208
-466.157	-148.453	-0.101	-0.010
-465.143	800.000	-0.061	-0.219
-464.128	14.905	-0.257	-0.253
-463.113	-13.902	-0.343	0.279
-462.099	-133.657	0.455	0.071
-461.084	-124.035	-0.310	-0.061
-460.070	-180.816	-0.363	0.009
-459.055	645.511	0.189	-0.610
-458.040	-80.573	-0.339	-0.141
-457.026	93.491	-0.207	-0.296
-456.011	800.000	0.037	0.179
-454.997	380.248	-0.057	-0.147
-453.982	372.237	-0.128	-0.330
-452.968	80.156	-0.049	0.066
-451.953	187.927	-0.248	0.468
-450.938	-200.000	-0.064	0.637
-449.924	90.274	0.029	0.040
-448.909	-35.969	0.322	-0.219
-447.895	-29.638	-0.207	-0.148
-446.880	-91.874	0.198	-0.070
-445.865	-41.265	-0.249	0.161
-444.851	800.000	-0.061	0.231
-443.836	-200.000	0.037	0.287
-442.822	-52.950	-0.301	-0.174
-441.807	-7.414	0.154	-0.132
-440.792	-102.941	0.160	-0.048
-439.778	-109.532	-0.343	-0.091
-438.763	-126.351	-0.148	-0.028
-437.749	-200.000	0.024	-0.386
-436.734	41.888	0.187	-0.214
-435.719	-155.713	0.194	-0.015
-434.705	800.000	0.107	-0.548
-433.690	-64.935	0.373	0.189
-432.676	362.370	-0.174	0.442
-431.661	-90.157	0.174	-0.063
-430.646	225.773	-0.097	0.199
-429.632	-188.971	0.118	-0.002
-428.617	122.772	0.164	0.259
-427.603	136.121	0.176	-0.290
-426.588	-11.542	-0.189	-0.156
-425.573	-200.000	-0.020	-0.440
-424.559	44.891	-0.306	0.354
-423.544	384.701	-0.099	0.259
-422.530	-60.561	-0.655	-0.349
-421.515	-173.865	0.395	-0.014
-420.500	32.439	-0.256	-0.278
-419.486	-21.882	0.008	0.006
-418.471	-42.105	-0.254	-0.163
-417.457	173.990	-0.093	0.170
-416.442	-171.797	-0.386	0.016
-415.428	800.000	-0.171	-0.601
-414.413	-200.000	0.022	0.171
-413.398	-200.000	-0.447	0.001
-412.384	-77.250	0.395	0.172
-411.369	167.217	0.310	0.555
-410.355	8.739	-0.359	0.340
-409.340	-200.000	0.021	-0.139
-408.325	73.158	0.116	-0.153
-407.311	800.000	0.027	0.108
-406.296	-13.457	-0.357	0.291
-405.282	-200.000	0.061	-0.507
-404.267	24.803	0.128	-0.134
-403.252	64.792	-0.063	-0.080
-402.238	-200.000	0.446	0.001
-401.223	-149.018	-0.459	-0.046
-400.209	-46.520	0.189	-0.116
-399.194	-200.000	0.074	0.705
-398.179	-200.000	-0.009	-0.206
-397.165	630.700	-0.120	0.383
-396.150	-42.328	-0.242	0.155
-395.136	405.476	0.063	0.167
-394.121	800.000	0.040	0.193
-393.106	-192.883	0.439	-0.005
-392.092	27.753	0.493	-0.522
-391.077	192.115	0.174	-0.331
-390.063	-113.108	-0.524	0.129
-389.048	-42.347	-0.253	0.162
-388.033	31.619	0.305	-0.330
-387.019	-87.534	0.334	0.126
-386.004	-78.897	-0.128	-0.054
-384.990	471.384	0.096	-0.274
-383.975	516.292	-0.093	-0.274
-382.960	-115.129	0.299	-0.071
-381.946	800.000	0.113	-0.408
-380.931	-200.000	0.041	0.679
-379.917	411.142	-0.220	-0.589
-378.902	-200.000	0.028	-0.208
-377.888	800.000	-0.097	-0.340
-376.873	-148.394	0.434	-0.044
-375.858	800.000	-0.046	-0.162
-374.844	-200.000	-0.050	0.400
-373.829	-100.632	0.380	0.117
-372.815	-73.489	0.097	-0.044
-371.800	-117.576	-0.034	-0.008
-370.785	37.848	-0.174	-0.194
-369.771	212.567	0.215	-0.428
-368.756	-200.000	-0.024	-0.549
-367.742	1.023	-0.415	0.374
-366.727	-22.933	0.164	0.124
-365.712	102.832	-0.306	0.450
-364.698	-54.544	-0.143	0.081
-363.683	-178.030	0.355	-0.010
-362.669	-140.631	0.069	-0.009
-361.654	-76.361	0.338	-0.149
-360.639	-34.565	-0.218	-0.149
-359.625	-152.956	-0.189	-0.016
-358.610	-149.676	-0.426	0.042
-357.596	-152.770	0.237	0.021
-356.581	800.000	-0.021	-0.115
-355.566	480.505	0.021	-0.061
-354.552	40.425	0.366	-0.414
-353.537	310.447	0.059	0.140
-352.523	-183.203	0.537	-0.012
-351.508	228.650	-0.177	-0.363
-350.493	-200.000	-0.021	-0.214
-349.479	-79.934	-0.678	0.284
-348.464	-136.026	0.183	0.027
-347.450	140.854	0.055	0.091
-346.435	-200.000	-0.011	-0.288
-345.420	-164.569	0.570	0.032
-344.406	-108.066	-0.030	-0.008
-343.391	-200.000	-0.031	0.620
-342.377	622.349	-0.098	0.311
-341.362	-33.077	-0.096	-0.067
-340.348	-99.104	-0.289	0.091
-339.333	-37.132	0.419	0.280
-338.318	-200.000	0.019	0.135
-337.304	800.000	-0.007	0.027
-336.289	800.000	-0.038	-0.170
-335.275	-148.534	-0.165	-0.017
-334.260	-106.508	0.040	-0.011
-333.245	156.211	0.214	0.372
-332.231	313.948	0.088	0.208
-331.216	57.727	-0.309	-0.379
-330.202	-134.240	0.400	0.061
-329.187	-55.069	-0.435	0.245
-328.172	128.948	-0.184	-0.295
-327.158	156.737	0.089	-0.154
-326.143	-42.454	-0.306	0.195
-325.129	64.076	0.277	0.350
-324.114	-200.000	0.109	0.780
-323.099	-110.548	0.474	0.122
-322.085	-53.186	0.388	-0.223
-321.070	10.967	0.068	0.065
-320.056	103.202	-0.191	0.280
-319.041	323.171	-0.213	0.511
-318.026	-9.035	0.378	0.317
-317.012	208.653	0.193	0.379
-315.997	-200.000	-0.031	0.883
-314.983	275.999	-0.239	0.534
-313.968	489.461	-0.074	0.213
-312.953	158.826	-0.298	0.520
-311.939	-200.000	0.008	-0.225
-310.924	120.255	-0.175	-0.272
-309.910	9.128	-0.259	-0.245
-308.895	-62.156	-0.213	-0.111
-307.880	117.289	0.136	-0.210
-306.866	-128.829	0.225	-0.039
-305.851	-200.000	-0.023	0.220
-304.837	-56.715	-0.224	-0.124
-303.822	-73.313	-0.522	-0.238
-302.807	-90.589	-0.214	-0.077
-301.793	-75.528	0.462	0.205
-300.778	-100.754	0.267	-0.082
-299.764	-86.482	-0.304	-0.116
-298.749	59.371	0.170	-0.209
-297.735	-34.951	0.104	0.071
-296.720	-63.879	-0.346	-0.177
-295.705	-22.570	0.227	-0.171
-294.691	69.219	0.147	-0.189
-293.676	483.024	0.058	0.166
-292.662	55.350	0.160	0.194
-291.647	62.357	0.365	-0.457
-290.632	-53.509	-0.207	0.118
-289.618	408.894	-0.037	0.100
-288.603	-122.169	-0.235	0.048
-287.589	-116.009	-0.116	-0.027
-286.574	-41.323	0.096	-0.062
-285.559	-200.000	0.029	0.502
-284.545	-16.020	0.133	-0.106
-283.530	0.107	-0.257	0.229
-282.516	-1.929	0.292	0.257
-281.501	-117.521	0.316	-0.071
-280.486	-19.455	0.143	0.110
-279.472	320.072	-0.111	-0.264
-278.457	-12.378	-0.187	-0.152
-277.443	-200.000	0.036	-0.865
-276.428	-10.893	-0.187	-0.154
-275.413	-145.945	-0.617	0.068
-274.399	-200.000	-0.014	-0.213
-273.384	-126.024	-0.363	0.068
-272.370	-34.514	-0.458	0.313
-271.355	125.348	-0.113	-0.179
-270.340	56.328	0.080	-0.098
-269.326	460.085	0.064	0.180
-268.311	800.000	-0.133	0.543
-267.297	434.585	0.079	0.216
-266.282	116.101	0.098	0.150
-265.267	167.079	-0.225	0.401
-264.253	-86.266	0.236	-0.090
-263.238	-149.196	0.577	0.057
-262.224	34.271	-0.289	-0.315
-261.209	69.392	-0.127	-0.164
-260.195	-11.242	0.139	0.114
-259.180	113.135	0.165	-0.251
-258.165	-168.846	0.192	0.009
-257.151	-77.185	0.038	-0.016
-256.136	-200.000	-0.047	-0.403
-255.122	-149.579	-0.232	-0.023
-254.107	-103.075	0.541	-0.159
-253.092	-121.840	0.290	0.059
-252.078	-108.364	0.147	-0.039
-251.063	69.679	-0.087	0.112
-250.049	-129.237	-0.421	0.073
-249.034	-57.078	-0.204	-0.112
-248.019	45.016	-0.227	0.261
-247.005	161.614	0.054	0.094
-245.990	-156.390	0.350	0.027
-244.976	-41.347	-0.203	-0.130
-243.961	362.044	-0.054	0.137
-242.946	-143.182	0.102	0.012
-241.932	770.634	0.084	0.287
-240.917	507.114	0.025	-0.072
-239.903	800.000	0.073	-0.340
-238.888	-116.221	-0.136	0.031
-237.873	-158.364	-0.479	-0.034
-236.859	-65.961	-0.349	-0.174
-235.844	-53.791	-0.245	0.139
-234.830	-48.363	0.112	0.067
-233.815	-200.000	0.031	0.216
-232.800	-38.219	-0.138	0.091
-231.786	235.576	0.213	0.440
-230.771	-24.983	0.153	-0.113
-229.757	-122.110	-0.316	0.064
-228.742	37.879	0.268	-0.297
-227.727	95.664	0.177	0.253
-226.713	75.602	-0.263	0.347
-225.698	-76.278	-0.238	0.104
-224.684	22.831	-0.407	0.416
-223.669	-88.333	0.216	0.080
-222.655	-136.258	0.124	-0.018
-221.640	613.396	0.063	0.199
-220.625	98.514	0.198	-0.286
-219.611	-200.000	0.001	0.183
-218.596	37.009	0.110	0.121
-217.582	800.000	0.030	-0.135
-216.567	-20.031	-0.215	-0.165
-215.552	-115.061	-0.237	-0.056
-214.538	156.949	0.268	-0.464
-213.523	-138.114	-0.129	0.018
-212.509	124.676	-0.302	-0.475
-211.494	-19.846	0.087	-0.067
-210.479	-110.122	0.513	0.133
-209.465	22.398	0.272	-0.277
-208.450	-115.699	-0.045	0.010
-207.436	-85.811	-0.724	0.278
-206.421	-52.261	0.196	0.113
-205.406	-122.372	-0.218	0.044
-204.392	108.445	0.040	0.059
-203.377	-51.755	0.102	-0.059
-202.363	71.449	0.255	0.330
-201.348	112.742	-0.230	0.348
-200.333	103.424	0.147	-0.216
-199.319	-200.000	0.012	0.142
-198.304	123.564	0.200	0.314
-197.290	-45.006	0.336	0.208
-196.275	800.000	-0.122	-0.516
-195.260	-59.716	-0.350	0.186
-194.246	319.115	-0.110	-0.261
-193.231	37.123	-0.052	-0.058
-192.217	-31.169	-0.099	-0.070
-191.202	-200.000	-0.009	-0.091
-190.187	-67.287	0.254	-0.124
-189.173	-7.897	-0.150	-0.126
-188.158	798.167	0.054	-0.185
-187.144	-32.139	0.071	-0.049
-186.129	800.000	0.043	-0.166
-185.114	348.069	0.086	0.213
-184.100	55.382	0.228	-0.276
-183.085	800.000	0.139	-0.531
-182.071	40.843	0.307	-0.346
-181.056	-51.851	0.265	0.153
-180.042	-35.141	0.207	-0.140
-179.027	-29.840	-0.219	0.155
-178.012	-134.861	0.267	0.040
-176.998	-200.000	-0.017	0.158
-175.983	11.675	0.121	0.116
-174.969	231.530	-0.135	0.277
-173.954	-76.658	-0.566	0.246
-172.939	-124.569	-0.508	-0.098
-171.925	-200.000	-0.050	0.803
-170.910	-81.169	0.454	0.186
-169.896	-119.411	-0.155	-0.033
-168.881	-148.451	0.277	0.028
-167.866	-65.455	-0.503	-0.251
-166.852	706.173	0.120	0.396
-165.837	129.138	-0.159	-0.253
-164.823	2.378	-0.260	0.234
-163.808	-28.198	-0.262	0.188
-162.793	-97.840	0.262	-0.084
-161.779	-90.512	0.310	0.111
-160.764	-125.011	-0.338	-0.064
-159.750	132.307	0.146	0.234
-158.735	-3.800	-0.214	-0.185
-157.720	96.450	0.175	0.250
-156.706	-139.034	0.232	-0.031
-155.691	-79.932	-0.704	0.293
-154.677	-200.000	-0.023	0.294
-153.662	800.000	-0.070	-0.314
-152.647	35.310	0.089	-0.097
-151.633	90.567	-0.060	0.084
-150.618	1.374	-0.131	-0.117
-149.604	-68.735	0.368	0.176
-148.589	-200.000	-0.046	0.269
-147.574	-60.022	-0.319	0.169
-146.560	278.006	-0.050	-0.112
-145.545	359.557	-0.151	-0.377
-144.531	-200.000	0.025	0.178
-143.516	156.895	0.294	0.507
-142.502	63.866	0.310	0.388
-141.487	-105.693	0.453	0.127
-140.472	-200.000	0.031	0.292
-139.458	309.826	0.135	0.315
-138.443	-200.000	0.190	0.000
-137.429	-74.120	-0.242	0.109
-136.414	750.392	0.154	0.520
-135.399	-200.000	0.012	0.390
-134.385	129.617	-0.131	0.208
-133.370	800.000	-0.103	0.441
-132.356	-200.000	0.080	-0.466
-131.341	-200.000	0.040	-0.230
-130.326	-200.000	0.034	0.200
-129.312	189.772	0.131	-0.244
-128.297	408.367	0.034	0.090
-127.283	5.459	-0.224	0.206
-126.268	256.129	-0.047	-0.101
-125.253	673.302	0.163	-0.527
-124.239	146.528	0.006	0.011
-123.224	-167.500	-0.504	-0.025
-122.210	-161.732	-0.446	-0.028
-121.195	76.825	-0.064	-0.085
-120.180	260.284	0.165	-0.355
-119.166	234.723	0.225	0.463
-118.151	28.179	-0.216	-0.227
-117.137	-39.871	0.166	-0.107
-116.122	-41.575	0.228	0.146
-115.107	537.348	-0.081	-0.241
-114.093	-137.552	0.549	0.076
-113.078	101.274	0.038	-0.056
-112.064	-160.069	0.390	0.026
-111.049	-200.000	-0.018	-0.373
-110.034	559.872	-0.060	-0.180
-109.020	-71.467	0.106	-0.049
-108.005	37.749	-0.066	-0.073
-106.991	53.923	-0.152	-0.181
-105.976	800.000	-0.092	-0.326
-104.962	-49.985	0.457	-0.269
-103.947	-116.757	0.293	-0.066
-102.932	216.141	-0.151	-0.299
-101.918	-200.000	0.010	-0.277
-100.903	-93.789	-0.181	-0.062
-99.889	-98.918	-0.107	0.034
-98.874	412.746	-0.151	0.401
-97.859	-91.106	-0.273	-0.097
-96.845	197.089	0.210	-0.399
-95.830	396.093	0.181	0.473
-94.816	-158.499	0.468	0.033
-93.801	-53.363	-0.081	-0.046
-92.786	-200.000	0.006	0.088
-91.772	499.280	0.067	0.194
-90.757	-92.049	0.422	-0.147
-89.743	64.741	0.304	-0.382
-88.728	70.605	0.420	-0.541
-87.713	-200.000	0.002	0.074
-86.699	-172.665	-0.127	-0.005
-85.684	-25.798	0.085	-0.062
-84.670	-89.828	-0.239	-0.086
-83.655	-57.908	0.144	0.078
-82.640	-200.000	0.003	-0.085
-81.626	8.743	-0.176	0.164
-80.611	-188.012	-0.438	-0.007
-79.597	234.026	0.113	0.232
-78.582	41.426	0.446	-0.502
-77.567	-83.376	-0.188	-0.074
-76.553	-200.000	0.084	-0.508
-75.538	-200.000	-0.014	-0.337
-74.524	-200.000	0.029	0.668
-73.509	-119.863	0.148	-0.031
-72.494	380.116	0.136	-0.348
-71.480	-200.000	0.008	-0.228
-70.465	-200.000	0.006	-0.070
-69.451	417.176	-0.077	0.205
-68.436	231.328	-0.241	0.491
-67.422	-115.388	0.311	-0.072
-66.407	-86.619	-0.312	0.118
-65.392	447.949	0.030	-0.082
-64.378	56.500	-0.153	-0.185
-63.363	-14.835	0.238	0.189
-62.349	800.000	0.042	-0.178
-61.334	-17.410	-1.067	-0.832
-60.319	-113.626	0.577	0.139
-59.305	417.006	-2.061	-5.484
-58.290	-8.076	2.284	1.906
-57.276	441.147	3.427	9.343
-56.261	-200.000	9.566	186.275
-55.246	552.006	1069.951	3203.412
-54.232	73.774	2698.755	3511.691
-53.217	77.103	2661.748	3511.039
-52.203	74.609	2399.910	3133.368
-51.188	42.326	2047.813	2308.597
-50.173	41.124	1911.145	2141.451
-49.159	38.901	1899.045	2103.881
-48.144	38.254	1894.850	2092.196
-47.130	38.077	1892.736	2087.877
-46.115	37.992	1890.960	2084.917
-45.100	37.860	1890.298	2082.685
-44.086	37.986	1888.162	2081.601
-43.071	37.929	1887.462	2080.134
-42.057	37.936	1885.591	2078.075
-41.042	37.880	1883.967	2075.597
-40.027	37.891	1882.943	2074.504
-39.013	37.800	1881.595	2071.969
-37.998	37.720	1880.356	2069.667
-36.984	37.869	1879.252	2069.956
-35.969	37.803	1877.573	2067.319
-34.954	37.676	1876.779	2065.009
-33.940	37.780	1875.498	2064.634
-32.925	37.806	1873.914	2063.079
-31.911	37.653	1873.266	2060.656
-30.896	37.822	1871.281	2060.189
-29.881	37.735	1870.239	2058.037
-28.867	37.690	1868.306	2055.344
-27.852	37.621	1868.287	2054.515
-26.838	37.628	1866.553	2052.600
-25.823	37.687	1865.207	2051.663
-24.809	37.675	1863.826	2049.933
-23.794	37.687	1862.052	2048.032
-22.779	37.691	1860.861	2046.677
-21.765	37.568	1859.762	2044.089
-20.750	37.510	1858.978	2042.540
-19.736	37.570	1858.281	2042.321
-18.721	37.648	1856.220	2040.795
-17.706	37.611	1855.386	2039.410
-16.692	37.476	1854.102	2036.502
-15.677	37.501	1853.780	2036.320
-14.663	37.366	1852.608	2033.535
-13.648	37.519	1850.298	2032.526
-12.633	37.636	1848.466	2031.662
-11.619	37.659	1847.338	2030.583
-10.604	37.560	1846.189	2028.205
-9.590	37.473	1845.388	2026.335
-8.575	37.612	1844.542	2026.772
-7.560	37.518	1843.203	2024.247
-6.546	37.388	1842.209	2021.709
-5.531	37.535	1839.957	2020.690
-4.517	37.484	1840.028	2020.158
-3.502	37.501	1839.204	2019.348
-2.487	37.431	1838.274	2017.518
-1.473	37.668	1835.473	2016.831
-0.458	38.256	1817.484	2003.044
0.556	35.306	1943.285	2096.811
1.571	34.703	2160.565	2323.606
2.586	37.184	2210.443	2407.952
3.600	37.315	2213.711	2412.857
4.615	37.713	2215.326	2419.293
5.629	37.770	2212.963	2417.137
6.644	37.685	2211.136	2413.792
7.659	37.912	2208.639	2413.602
8.673	38.227	2208.188	2416.733
9.688	37.395	2211.485	2409.697
10.702	32.400	2270.150	2409.231
11.717	27.279	2327.084	2401.586
12.731	13.905	2293.824	2190.788
13.746	2.410	2263.122	2010.101
14.761	0.675	2258.344	1982.741
15.775	0.447	2256.442	1977.836
16.790	0.361	2254.671	1974.919
17.804	0.359	2253.246	1973.395
18.819	0.302	2253.115	1972.306
19.834	0.298	2251.045	1970.206
20.848	0.336	2249.773	1969.345
21.863	0.330	2247.930	1967.421
22.877	0.267	2246.077	1964.733
23.892	0.312	2243.831	1963.133
24.907	0.355	2241.210	1961.163
25.921	0.293	2240.366	1959.378
26.936	0.245	2238.283	1956.699
27.950	0.286	2235.270	1954.357
28.965	0.289	2233.381	1952.511
29.980	0.372	2231.913	1952.077
30.994	0.551	2229.801	1952.331
32.009	7.013	2252.370	2056.505
33.023	25.703	2310.459	2357.701
34.038	40.472	2347.594	2591.171
35.053	45.198	2358.460	2665.043
36.067	45.036	2353.527	2657.023
37.082	43.643	2347.268	2631.444
38.096	43.683	2346.743	2631.061
39.111	45.352	2349.480	2655.622
40.126	46.484	2350.316	2671.032
41.140	47.625	2352.135	2687.648
42.155	46.905	2347.969	2673.199
43.169	46.992	2348.384	2674.493
44.184	48.512	2350.482	2696.336
45.199	48.566	2346.304	2691.924
46.213	46.675	2339.303	2659.082
47.228	45.212	2334.205	2634.020
48.242	45.174	2333.068	2631.937
49.257	45.297	2331.621	2631.574
50.271	46.299	2332.172	2644.845
51.286	46.246	2330.564	2642.022
52.301	45.601	2326.485	2628.757
53.315	45.133	2323.698	2619.256
54.330	40.066	2302.948	2530.580
55.344	34.262	2284.711	2435.891
56.359	33.513	2280.642	2421.657
57.374	32.869	2276.452	2408.660
58.388	32.232	2273.192	2396.759
59.403	33.191	2272.313	2407.820
60.417	34.883	2275.892	2432.991
61.432	35.353	2273.666	2436.319
62.447	34.227	2268.917	2416.578
63.461	33.672	2266.095	2406.222
64.476	33.119	2263.100	2395.708
65.490	34.645	2266.309	2418.261
66.505	38.665	2278.851	2482.690
67.520	43.631	2291.765	2559.848
68.534	44.263	2291.421	2567.191
69.549	44.715	2288.096	2568.888
70.563	45.231	2287.568	2574.537
71.578	45.666	2288.143	2580.378
72.593	46.150	2287.360	2585.308
73.607	46.657	2287.052	2591.061
74.622	46.110	2282.953	2579.207
75.636	45.071	2277.155	2559.260
76.651	45.571	2276.755	2564.802
77.666	45.589	2274.297	2561.960
78.680	45.504	2272.984	2559.096
79.695	46.855	2275.310	2578.394
80.709	48.336	2277.849	2599.567
81.724	48.442	2276.084	2598.565
82.739	48.335	2273.258	2593.685
83.753	47.527	2268.254	2577.569
84.768	46.580	2265.180	2561.940
85.782	45.748	2260.879	2546.384
86.797	45.519	2258.973	2541.074
87.812	45.306	2256.077	2534.860
88.826	45.144	2253.266	2529.380
89.841	45.427	2252.336	2531.554
90.855	45.913	2251.487	2536.337
91.870	44.869	2245.656	2516.521
92.884	44.448	2243.578	2508.676
93.899	45.348	2246.198	2522.471
94.914	44.324	2240.730	2503.349
95.928	39.469	2224.645	2425.178
96.943	36.523	2217.427	2380.618
97.957	40.308	2228.321	2439.004
98.972	43.853	2233.372	2488.122
99.987	43.620	2229.815	2480.988
101.001	43.991	2228.774	2484.099
102.016	44.379	2228.242	2487.985
103.030	44.699	2229.261	2492.767
104.045	45.882	2229.152	2506.890
105.060	46.797	2229.456	2518.168
106.074	46.812	2226.275	2514.459
107.089	45.869	2222.492	2498.344
108.103	45.923	2222.664	2498.900
109.118	46.611	2222.361	2506.682
110.133	47.027	2220.658	2509.535
111.147	46.586	2217.364	2500.137
112.162	46.220	2215.055	2492.775
113.176	46.014	2211.460	2485.925
114.191	46.048	2210.631	2485.103
115.206	46.010	2208.222	2481.643
116.220	45.684	2205.980	2474.863
117.235	45.324	2202.487	2466.281
118.249	45.073	2199.222	2459.292
119.264	45.478	2200.931	2465.816
120.279	46.016	2200.114	2471.121
121.293	45.836	2198.006	2466.279
122.308	45.394	2194.507	2456.722
123.322	44.865	2193.060	2448.422
124.337	44.649	2188.927	2440.907
125.352	41.389	2179.576	2390.983
126.366	41.278	2180.443	2390.303
127.381	43.966	2184.259	2426.620
128.395	44.716	2183.753	2434.785
129.410	45.627	2183.574	2445.228
130.424	45.813	2182.617	2446.097
131.439	45.590	2180.848	2441.156
132.454	45.101	2177.259	2430.987
133.468	45.298	2174.499	2429.970
134.483	45.356	2173.287	2429.019
135.497	45.251	2172.187	2426.240
136.512	45.629	2170.396	2428.457
137.527	45.522	2167.966	2424.182
138.541	45.051	2166.559	2416.702
139.556	44.680	2165.237	2410.533
140.570	44.815	2164.076	2410.555
141.585	45.218	2162.934	2413.785
142.600	45.388	2161.772	2414.219
143.614	45.144	2158.211	2407.056
144.629	45.543	2159.690	2413.149
145.643	45.656	2158.051	2412.367
146.658	45.469	2155.220	2406.698
147.673	45.379	2152.587	2402.409
148.687	45.866	2153.937	2409.385
149.702	45.655	2151.892	2404.311
150.716	45.329	2148.779	2396.712
151.731	45.488	2148.831	2398.355
152.746	45.695	2146.927	2398.373
153.760	43.293	2137.542	2359.421
154.775	37.687	2121.485	2275.791
155.789	34.767	2115.303	2234.627
156.804	38.772	2125.200	2291.997
157.819	43.250	2132.047	2351.722
158.833	44.465	2133.640	2367.433
159.848	45.638	2134.400	2381.723
160.862	46.299	2134.546	2389.314
161.877	46.670	2133.960	2392.707
162.892	47.129	2135.087	2399.042
163.906	47.434	2135.000	2402.208
164.921	47.896	2132.408	2404.388
165.935	47.656	2129.244	2397.745
166.950	46.958	2126.836	2386.634
167.964	46.221	2122.305	2372.721
168.979	45.979	2119.933	2366.975
169.994	46.129	2118.967	2367.352
171.008	46.262	2118.002	2367.531
172.023	46.151	2116.984	2364.824
173.037	46.368	2115.744	2365.666
174.052	46.356	2113.730	2362.993
175.067	46.433	2113.229	2363.043
176.081	46.443	2110.407	2359.714
177.096	45.746	2108.156	2348.896
178.110	45.056	2105.181	2337.351
179.125	45.095	2104.237	2336.476
180.140	46.055	2105.514	2348.657
181.154	46.194	2103.877	2348.144
182.169	45.546	2101.475	2337.754
183.183	44.303	2094.945	2315.976
184.198	39.402	2078.355	2241.446
185.213	36.856	2074.661	2208.062
186.227	41.958	2087.546	2280.148
187.242	44.698	2090.718	2314.702
188.256	44.919	2088.834	2314.864
189.271	45.350	2088.986	2319.672
190.286	46.093	2089.380	2328.300
191.300	45.535	2084.572	2316.327
192.315	44.824	2081.629	2304.692
193.329	45.293	2081.506	2309.616
194.344	46.113	2082.149	2319.361
195.359	46.797	2082.806	2327.579
196.373	47.044	2082.136	2329.353
197.388	46.684	2078.339	2320.751
198.402	46.223	2076.365	2313.059
199.417	46.091	2073.668	2308.286
200.432	46.520	2073.483	2312.648
201.446	47.022	2072.693	2317.152
202.461	46.411	2068.594	2305.413
203.475	45.537	2064.072	2290.277
204.490	44.968	2061.850	2281.140
205.504	45.456	2059.888	2284.176
206.519	45.009	2057.438	2276.167
207.534	45.147	2056.907	2276.856
208.548	45.852	2056.246	2283.752
209.563	44.448	2050.630	2261.557
210.577	43.741	2050.064	2252.754
211.592	45.382	2052.861	2273.919
212.607	43.270	2041.931	2238.031
213.621	35.274	2021.178	2126.324
214.636	35.078	2023.843	2126.675
215.650	40.784	2037.033	2204.173
216.665	43.740	2042.681	2243.018
217.680	44.961	2042.601	2256.242
218.694	45.647	2043.756	2264.881
219.709	45.756	2041.982	2263.857
220.723	46.023	2041.568	2266.089
221.738	46.906	2040.880	2274.835
222.753	46.639	2037.602	2267.960
223.767	45.817	2034.635	2255.308
224.782	45.430	2032.444	2248.329
225.796	45.636	2032.026	2249.872
226.811	46.682	2032.904	2262.121
227.826	47.203	2032.227	2266.834
228.840	47.238	2030.417	2264.936
229.855	46.547	2027.704	2254.040
230.869	45.595	2023.938	2239.122
231.884	44.600	2019.532	2223.067
232.899	44.746	2018.416	2223.174
233.913	45.430	2018.610	2230.615
234.928	45.579	2019.192	2232.626
235.942	45.963	2019.010	2236.367
236.957	46.307	2017.422	2238.103
237.972	45.884	2015.129	2230.667
238.986	45.700	2014.177	2227.345
240.001	45.411	2011.175	2220.601
241.015	44.829	2008.357	2210.880
242.030	44.332	2005.219	2201.746
243.045	41.669	1995.897	2162.323
244.059	39.772	1992.376	2137.621
245.074	43.169	1999.326	2181.851
246.088	44.741	1998.926	2198.219
247.103	44.716	1997.963	2196.626
248.117	45.149	1997.865	2200.948
249.132	45.670	1997.850	2206.319
250.147	45.798	1995.262	2204.577
251.161	45.421	1992.926	2197.659
252.176	45.424	1990.982	2195.287
253.190	45.616	1989.910	2195.913
254.205	45.742	1988.334	2195.266
255.220	46.413	1989.607	2203.636
256.234	46.693	1989.210	2205.948
257.249	46.199	1986.875	2197.777
258.263	46.304	1986.588	2198.332
259.278	46.731	1985.333	2201.260
260.293	46.558	1983.367	2196.957
261.307	45.904	1980.383	2186.391
262.322	45.800	1978.451	2182.882
263.336	45.571	1974.920	2176.280
264.351	44.793	1972.239	2164.755
265.366	44.944	1972.111	2165.968
266.380	45.190	1970.543	2166.613
267.395	44.337	1966.685	2153.034
268.409	43.904	1965.928	2147.337
269.424	45.215	1967.197	2162.421
270.439	46.042	1967.719	2171.532
271.453	44.306	1958.790	2143.033
272.468	39.044	1943.844	2070.851
273.482	36.717	1941.481	2043.423
274.497	40.700	1949.277	2093.715
275.512	44.214	1953.600	2135.358
276.526	44.653	1952.699	2138.757
277.541	44.503	1949.619	2133.542
278.555	44.567	1948.946	2133.228
279.570	44.213	1945.764	2125.763
280.585	43.503	1943.748	2115.834
281.599	43.581	1943.236	2115.842
282.614	44.698	1944.545	2128.769
283.628	45.647	1945.473	2139.494
284.643	46.263	1945.287	2145.498
285.657	46.575	1944.438	2147.584
286.672	46.388	1943.173	2143.969
287.687	46.639	1941.096	2144.047
288.701	46.465	1940.192	2140.967
289.716	46.475	1938.099	2138.503
290.730	46.370	1937.606	2136.609
291.745	46.472	1936.105	2135.760
292.760	46.112	1932.982	2128.317
293.774	45.536	1931.582	2120.525
294.789	45.550	1931.725	2120.567
295.803	45.885	1929.112	2120.931
296.818	45.912	1927.167	2118.826
297.833	45.675	1926.269	2115.120
298.847	45.881	1925.957	2116.666
299.862	46.041	1924.038	2115.954
300.876	45.487	1918.950	2104.386
301.891	41.049	1904.806	2042.943
302.906	36.870	1898.881	1993.239
303.920	41.923	1911.089	2058.237
304.935	45.133	1914.021	2094.320
305.949	45.753	1914.939	2101.469
306.964	46.811	1915.584	2112.825
307.979	46.770	1911.865	2108.051
308.993	45.214	1907.230	2086.721
310.008	44.980	1906.341	2083.102
311.022	46.057	1907.187	2094.832
312.037	46.652	1906.649	2100.084
313.052	46.531	1903.776	2095.433
314.066	45.692	1900.527	2083.031
315.081	45.438	1899.772	2079.364
316.095	45.480	1898.013	2077.617
317.110	45.407	1897.236	2075.775
318.125	45.524	1895.835	2075.180
319.139	45.320	1894.080	2070.936
320.154	45.879	1894.488	2076.822
321.168	46.011	1893.209	2076.515
322.183	46.035	1892.062	2075.255
323.197	45.896	1889.804	2071.119
324.212	45.611	1886.978	2064.886
325.227	45.252	1885.069	2058.914
326.241	44.717	1882.651	2050.614
327.256	45.133	1881.104	2052.886
328.270	45.206	1881.043	2053.308
329.285	45.404	1880.449	2054.421
330.300	44.173	1874.781	2035.582
331.314	38.099	1858.465	1956.676
332.329	36.180	1857.711	1936.295
333.343	41.885	1869.552	2006.139
334.358	45.784	1874.129	2050.106
335.373	46.191	1874.394	2054.242
336.387	46.496	1872.198	2054.653
337.402	46.446	1871.053	2052.648
338.416	46.006	1868.387	2045.074
339.431	45.981	1867.886	2044.025
340.446	46.967	1866.960	2052.624
341.460	47.132	1865.844	2052.806
342.475	47.130	1863.976	2050.479
343.489	46.146	1860.107	2036.189
344.504	45.507	1858.529	2027.847
345.519	45.674	1857.650	2028.315
346.533	45.952	1856.210	2029.259
347.548	45.848	1854.360	2025.961
348.562	45.598	1852.752	2021.478
349.577	46.134	1853.828	2027.737
350.592	46.656	1853.475	2032.284
351.606	46.670	1852.526	2031.131
352.621	46.949	1850.339	2031.254
353.635	46.704	1849.250	2027.397
354.650	46.224	1846.784	2019.709
355.665	46.013	1844.083	2014.433
356.679	46.135	1843.453	2014.707
357.694	46.104	1842.659	2013.295
358.708	46.230	1841.909	2013.469
359.723	44.865	1834.731	1991.983
360.738	38.240	1818.157	1908.984
361.752	36.757	1818.797	1894.842
362.767	42.375	1827.172	1958.672
363.781	44.645	1829.938	1983.672
364.796	45.681	1830.828	1994.545
365.810	45.288	1828.199	1987.608
366.825	44.699	1825.735	1978.936
367.840	44.930	1825.242	1980.418
368.854	44.600	1823.959	1975.574
369.869	44.534	1822.868	1973.506
370.883	44.886	1821.423	1975.140
371.898	44.996	1820.702	1975.195
372.913	45.416	1819.933	1978.208
373.927	45.350	1819.080	1976.398
374.942	45.557	1817.727	1976.700
375.956	45.579	1816.341	1975.174
376.971	45.128	1813.405	1967.375
377.986	45.212	1811.624	1966.020
379.000	45.684	1812.450	1971.243
380.015	46.261	1811.898	1975.984
381.029	46.274	1810.255	1974.082
382.044	45.990	1809.668	1970.471
383.059	46.368	1807.589	1971.614
384.073	45.533	1804.518	1959.992
385.088	44.815	1803.239	1951.460
386.102	45.259	1802.106	1954.267
387.117	45.995	1802.380	1961.407
388.132	46.134	1800.418	1960.368
389.146	44.332	1794.440	1936.378
390.161	38.051	1777.591	1858.105
391.175	36.141	1776.522	1838.484
392.190	42.038	1786.232	1904.920
393.205	44.224	1787.938	1927.409
394.219	44.654	1786.968	1930.237
395.234	44.538	1785.335	1927.132
396.248	44.504	1784.235	1925.388
397.263	44.487	1782.532	1923.163
398.278	44.426	1779.128	1918.678
399.292	44.148	1779.280	1915.976
400.307	45.598	1782.087	1932.539
401.321	46.341	1781.596	1938.822
402.336	45.639	1779.000	1929.119
403.350	45.465	1776.842	1924.902
404.365	46.144	1776.995	1931.258
405.380	47.280	1778.259	1943.132
406.394	47.299	1777.287	1942.017
407.409	46.446	1773.424	1929.527
408.423	45.655	1771.124	1919.350
409.438	45.688	1768.983	1917.113
410.453	45.988	1769.058	1919.785
411.467	46.117	1768.198	1919.827
412.482	46.428	1768.365	1922.705
413.496	46.667	1766.455	1922.636
414.511	46.049	1764.145	1914.106
415.526	45.916	1761.066	1909.288
416.540	46.275	1761.529	1912.921
417.555	46.400	1758.783	1910.881
418.569	45.227	1757.721	1898.546
419.584	45.808	1757.905	1903.942
420.599	45.942	1757.232	1904.237
421.613	44.892	1754.238	1890.976
422.628	44.268	1752.521	1883.091
423.642	45.902	1754.774	1900.519
424.657	46.949	1753.894	1909.074
425.672	45.617	1748.631	1890.761
426.686	45.587	1747.951	1889.521
427.701	46.325	1748.532	1896.771
428.715	47.143	1749.662	1905.346
429.730	48.458	1751.695	1919.516
430.745	49.779	1751.352	1931.123
431.759	49.321	1749.611	1924.745
432.774	47.482	1742.272	1899.521
433.788	39.422	1720.717	1802.037
434.803	31.253	1706.245	1711.774
435.818	29.763	1702.146	1693.752
436.832	29.700	1701.540	1692.367
437.847	29.067	1695.706	1680.549
438.861	19.711	1667.597	1567.623
439.876	4.998	1640.616	1409.227
440.890	0.745	1632.418	1363.514
441.905	0.392	1631.139	1359.081
442.920	0.301	1629.754	1356.943
443.934	0.262	1628.201	1355.133
444.949	0.349	1627.559	1355.222
445.963	0.248	1627.065	1353.741
446.978	0.320	1625.638	1353.041
447.993	0.221	1624.630	1351.146
449.007	0.302	1622.870	1350.253
450.022	0.332	1620.385	1348.289
451.036	0.403	1619.225	1347.803
452.051	1.239	1624.113	1359.237
453.066	11.866	1650.623	1478.129
454.080	27.709	1678.369	1647.864
455.095	33.066	1686.178	1704.046
456.109	33.545	1686.614	1708.621
457.124	34.107	1685.980	1712.858
458.139	33.180	1683.405	1701.661
459.153	32.610	1681.478	1694.362
460.168	32.621	1680.055	1692.823
461.182	32.913	1679.375	1694.566
462.197	33.292	1678.762	1697.162
463.212	33.542	1677.164	1697.596
464.226	33.627	1677.627	1698.629
465.241	33.652	1676.463	1697.472
466.255	33.788	1674.638	1696.640
467.270	33.645	1672.698	1693.193
468.285	33.952	1672.248	1695.286
469.299	34.431	1671.875	1699.000
470.314	34.661	1670.531	1699.485
471.328	34.778	1669.887	1699.676
472.343	34.861	1668.866	1699.166
473.358	34.978	1668.726	1699.868
474.372	35.262	1667.790	1701.248
475.387	35.690	1667.620	1704.684
476.401	35.700	1665.928	1702.839
477.416	35.009	1663.293	1693.798
478.430	34.685	1662.165	1689.571
479.445	35.497	1662.771	1697.198
480.460	36.126	1662.489	1702.292
481.474	36.110	1660.252	1699.661
482.489	35.463	1658.735	1692.172
483.503	34.867	1655.076	1682.967
484.518	34.498	1653.710	1678.115
485.533	34.879	1653.338	1680.898
486.547	34.646	1651.174	1676.445
487.562	33.729	1647.286	1664.219
488.576	34.008	1646.962	1666.146
489.591	34.804	1647.772	1673.780
490.606	35.442	1647.957	1679.384
491.620	35.729	1645.820	1679.525
492.635	34.974	1642.908	1669.733
493.649	34.112	1640.097	1659.120
494.664	34.037	1640.264	1658.432
495.679	34.990	1639.850	1666.165
496.693	34.816	1638.564	1663.133
497.708	34.559	1636.477	1658.574
498.722	33.994	1634.396	1651.337
499.737	34.023	1633.464	1650.447
500.752	34.300	1632.123	1651.306
501.766	34.372	1630.175	1649.766
502.781	33.956	1628.693	1644.451
503.795	34.060	1627.384	1643.839
504.810	34.036	1625.328	1641.354
505.825	33.752	1625.210	1638.577
506.839	33.480	1622.906	1633.704
507.854	33.424	1621.783	1631.892
508.868	33.399	1620.057	1629.745
509.883	32.986	1618.685	1624.600
510.898	32.730	1615.622	1619.115
511.912	32.672	1614.057	1616.859
512.927	32.495	1613.049	1614.124
513.941	32.584	1611.012	1612.660
514.956	32.919	1611.411	1615.748
515.971	33.615	1611.714	1621.847
516.985	33.273	1609.200	1616.190
518.000	32.635	1607.430	1608.747
519.014	32.268	1606.351	1604.320
520.029	32.284	1604.641	1602.562
521.043	32.205	1603.248	1600.301
522.058	32.505	1602.645	1602.070
523.073	32.424	1601.918	1600.466
524.087	32.133	1600.671	1596.543
525.102	32.315	1599.659	1596.890
526.116	33.265	1598.914	1604.055
527.131	33.711	1598.814	1607.563
528.146	33.395	1597.357	1603.215
529.160	33.224	1595.494	1599.707
530.175	33.333	1594.246	1599.188
531.189	33.339	1594.114	1598.917
532.204	33.288	1592.956	1597.129
533.219	33.615	1593.225	1599.976
534.233	34.557	1593.832	1608.383
535.248	34.507	1591.582	1605.500
536.262	33.791	1589.009	1596.657
537.277	33.858	1588.961	1596.992
538.292	34.323	1588.576	1600.336
539.306	34.548	1586.655	1600.107
540.321	34.027	1583.116	1591.965
541.335	33.454	1580.949	1584.774
542.350	33.685	1580.787	1586.362
543.365	34.110	1579.956	1588.915
544.379	34.277	1578.445	1588.605
545.394	34.018	1577.109	1584.900
546.408	33.929	1576.431	1583.280
547.423	34.409	1576.368	1587.043
548.438	34.627	1576.253	1588.562
549.452	34.516	1574.098	1585.274
550.467	34.296	1572.012	1581.149
551.481	33.997	1570.643	1577.087
552.496	33.671	1568.622	1572.160
553.511	33.267	1566.455	1566.440
554.525	32.952	1565.597	1562.769
555.540	32.784	1564.521	1560.109
556.554	32.819	1563.242	1558.944
557.569	32.776	1561.888	1557.049
558.583	32.689	1560.593	1554.851
559.598	32.729	1559.343	1553.752
560.613	32.585	1558.687	1551.718
561.627	32.642	1556.377	1549.703
562.642	32.324	1553.468	1544.002
563.656	31.668	1551.939	1536.883
564.671	31.502	1550.902	1534.304
565.686	31.520	1549.210	1532.596
566.700	31.636	1549.323	1533.481
567.715	31.862	1547.294	1533.143
568.729	32.067	1547.122	1534.476
569.744	32.793	1546.722	1539.854
570.759	33.021	1545.176	1540.001
571.773	32.338	1544.403	1533.452
572.788	32.046	1541.913	1528.401
573.802	31.748	1540.372	1524.260
574.817	31.640	1537.655	1520.501
575.832	31.452	1535.467	1516.626
576.846	31.719	1536.477	1519.618
577.861	32.223	1536.271	1523.345
578.875	32.335	1535.115	1522.927
579.890	32.355	1533.852	1521.649
580.905	32.274	1533.263	1520.223
581.919	32.349	1533.001	1520.398
582.934	32.406	1531.204	1518.893
583.948	32.339	1529.885	1516.857
584.963	32.442	1529.681	1517.314
585.978	32.977	1529.346	1521.129
586.992	33.018	1528.240	1520.178
588.007	32.682	1527.369	1516.412
589.021	32.679	1525.835	1514.685
590.036	32.256	1523.950	1509.220
591.051	32.253	1522.541	1507.623
592.065	32.539	1520.966	1508.185
593.080	32.421	1519.474	1505.575
594.094	32.924	1518.881	1508.849
595.109	33.221	1518.921	1511.096
596.123	33.985	1518.068	1516.188
597.138	33.658	1516.093	1511.415
598.153	33.137	1513.732	1504.718
599.167	33.152	1512.354	1503.289
600.182	33.137	1511.453	1502.093
601.196	32.733	1511.225	1498.459
602.211	32.903	1510.074	1498.496
603.226	32.468	1508.321	1493.107
604.240	32.414	1506.407	1490.603
605.255	32.399	1504.603	1488.525
606.269	31.984	1503.972	1484.423
607.284	32.029	1502.431	1483.077
608.299	32.046	1500.246	1480.880
609.313	32.149	1499.504	1480.789
610.328	31.907	1498.604	1477.803
611.342	31.744	1496.520	1474.280
612.357	31.630	1494.902	1471.609
613.372	31.499	1494.511	1470.014
614.386	31.456	1493.319	1468.329
615.401	31.474	1492.081	1467.074
616.415	31.281	1490.946	1464.265
617.430	30.936	1489.966	1460.406
618.445	30.744	1488.463	1457.250
619.459	30.849	1487.599	1457.054
620.474	31.305	1487.099	1459.975
621.488	31.916	1487.847	1465.337
622.503	32.966	1488.010	1473.561
623.518	32.257	1484.924	1464.778
624.532	31.053	1482.128	1452.426
625.547	30.961	1480.077	1449.519
626.561	30.590	1478.971	1445.367
627.576	30.369	1478.674	1443.180
628.591	31.008	1478.135	1447.466
629.605	31.641	1477.796	1451.897
630.620	31.975	1478.189	1454.713
631.634	33.010	1478.383	1462.791
632.649	33.324	1476.204	1462.904
633.663	32.375	1473.353	1452.540
634.678	31.284	1470.427	1441.024
635.693	30.683	1467.898	1433.718
636.707	30.536	1466.262	1430.816
637.722	30.324	1465.166	1427.932
638.736	30.562	1464.652	1429.098
639.751	30.983	1463.982	1431.524
640.766	31.034	1463.171	1430.953
641.780	31.070	1461.980	1429.897
642.795	31.285	1461.483	1430.896
643.809	31.476	1461.401	1432.114
644.824	31.490	1461.105	1431.763
645.839	31.790	1460.562	1433.368
646.853	31.747	1459.087	1431.418
647.868	31.818	1457.781	1430.509
648.882	32.076	1456.776	1431.327
649.897	32.211	1455.743	1431.174
650.912	32.082	1454.667	1428.958
651.926	31.822	1453.413	1425.568
652.941	32.023	1452.011	1425.559
653.955	31.792	1449.938	1421.593
654.970	31.596	1448.124	1418.146
655.985	31.238	1445.891	1413.073
656.999	30.959	1444.004	1408.937
658.014	30.965	1442.940	1407.774
659.028	30.942	1442.877	1407.374
660.043	31.615	1443.270	1412.690
661.058	31.887	1442.435	1413.765
662.072	31.962	1441.285	1413.036
663.087	32.051	1441.033	1413.296
664.101	32.088	1440.034	1412.426
665.116	31.898	1438.309	1409.132
666.131	31.708	1436.529	1405.789
667.145	31.861	1435.938	1406.190
668.160	31.544	1434.664	1402.386
669.174	31.219	1432.304	1397.470
670.189	31.249	1431.218	1396.473
671.204	31.449	1431.333	1397.917
672.218	31.446	1430.031	1396.455
673.233	31.481	1428.832	1395.383
674.247	31.072	1426.965	1390.326
675.262	30.984	1425.282	1387.860
676.276	30.849	1424.305	1385.733
677.291	30.856	1424.361	1385.676
678.306	31.196	1423.935	1387.635
679.320	31.352	1421.745	1386.502
680.335	30.896	1420.219	1381.447
681.349	30.684	1420.226	1379.708
682.364	30.831	1418.950	1379.398
683.379	30.621	1416.882	1375.663
684.393	30.611	1415.580	1374.159
685.408	30.416	1414.269	1371.277
686.422	30.371	1413.842	1370.364
687.437	30.322	1412.441	1368.474
688.452	30.034	1411.673	1365.438
689.466	30.073	1409.702	1363.654
690.481	30.093	1408.517	1362.495
691.495	30.459	1408.472	1364.991
692.510	31.582	1409.832	1374.438
693.525	32.762	1410.038	1383.182
694.539	32.265	1406.532	1375.920
695.554	30.794	1404.771	1363.220
696.568	29.951	1402.957	1355.097
697.583	29.835	1401.441	1352.616
698.598	29.950	1400.646	1352.529
699.612	30.174	1399.019	1352.444
700.627	30.078	1398.087	1350.674
701.641	30.482	1398.006	1353.393
702.656	30.675	1396.571	1353.253
703.671	30.610	1395.949	1352.010
704.685	30.765	1395.802	1352.841
705.700	30.836	1395.623	1353.028
706.714	31.061	1394.429	1353.347
707.729	31.331	1393.550	1354.296
708.744	31.498	1392.297	1354.133
709.758	31.235	1390.526	1350.335
710.773	30.709	1388.730	1344.611
711.787	30.321	1387.292	1340.246
712.802	30.840	1385.928	1342.531
713.816	31.027	1386.050	1343.838
714.831	31.381	1385.177	1345.398
715.846	31.154	1384.004	1342.456
716.860	30.986	1381.672	1338.816
717.875	31.094	1381.379	1339.156
718.889	31.351	1380.066	1339.570
719.904	31.125	1378.882	1336.633
720.919	31.042	1377.936	1334.961
721.933	30.777	1376.899	1331.891
722.948	30.682	1376.169	1330.346
723.962	30.675	1374.547	1328.568
724.977	30.519	1373.432	1326.207
725.992	30.477	1372.510	1324.859
727.006	30.470	1371.700	1323.870
728.021	30.533	1370.370	1322.876
729.035	30.287	1369.072	1319.710
730.050	30.500	1367.867	1319.908
731.065	30.355	1366.612	1317.506
732.079	30.215	1365.663	1315.435
733.094	30.331	1364.738	1315.212
734.108	30.628	1363.701	1316.172
735.123	30.441	1362.036	1313.079
736.138	30.093	1361.317	1309.752
737.152	30.114	1360.027	1308.504
738.167	30.082	1358.488	1306.644
739.181	30.027	1357.734	1305.370
740.196	30.016	1357.149	1304.575
741.211	29.996	1355.916	1303.093
742.225	29.997	1354.867	1301.936
743.240	29.836	1353.522	1299.350
744.254	29.679	1352.380	1296.993
745.269	29.769	1350.862	1296.013
746.284	29.745	1349.743	1294.614
747.298	29.702	1349.029	1293.474
748.313	29.925	1349.448	1295.287
749.327	30.695	1349.645	1300.736
750.342	31.399	1350.913	1306.752
751.356	32.450	1350.838	1313.901
752.371	32.158	1348.726	1309.645
753.386	30.754	1344.743	1295.802
754.400	29.864	1342.630	1287.393
755.415	29.953	1341.664	1286.934
756.429	30.130	1341.030	1287.410
757.444	30.284	1339.747	1287.097
758.459	30.146	1338.647	1284.920
759.473	30.088	1337.888	1283.638
760.488	30.115	1336.309	1282.156
761.502	30.093	1335.400	1280.975
762.517	30.230	1334.451	1280.868
763.532	30.579	1333.440	1282.162
764.546	30.660	1332.337	1281.507
765.561	30.344	1331.304	1278.172
766.575	29.938	1330.029	1273.989
767.590	30.007	1328.623	1272.967
768.605	30.377	1328.228	1274.988
769.619	30.529	1327.896	1275.567
770.634	30.704	1326.094	1274.889
771.648	30.247	1324.880	1270.425
772.663	30.052	1324.039	1268.128
773.678	29.951	1323.411	1266.678
774.692	30.061	1322.532	1266.440
775.707	29.896	1322.213	1264.849
776.721	29.689	1321.521	1262.615
777.736	29.667	1319.983	1260.842
778.751	29.751	1318.753	1260.092
779.765	29.916	1316.901	1259.302
780.780	29.740	1316.488	1257.550
781.794	29.712	1315.743	1256.499
782.809	29.638	1314.342	1254.503
783.824	29.399	1313.567	1251.985
784.838	29.966	1312.688	1254.863
785.853	30.889	1313.681	1261.949
786.867	30.891	1312.701	1260.870
787.882	30.149	1310.863	1253.908
788.897	29.822	1309.294	1250.041
789.911	29.383	1308.255	1245.920
790.926	29.358	1306.429	1243.861
791.940	29.290	1305.119	1242.007
792.955	29.292	1303.877	1240.684
793.969	29.111	1303.171	1238.641
794.984	29.327	1301.888	1238.732
795.999	29.315	1301.197	1237.849
797.013	29.331	1299.653	1236.338
798.028	29.495	1298.217	1235.929
799.042	29.417	1298.235	1235.271
800.057	29.285	1297.687	1233.714
801.072	29.403	1296.172	1232.917
802.086	29.552	1294.274	1231.967
803.101	29.558	1293.263	1230.897
804.115	29.474	1292.724	1229.671
805.130	29.613	1291.807	1229.582
806.145	29.634	1290.204	1228.054
807.159	29.621	1289.724	1227.363
808.174	29.823	1288.977	1227.849
809.188	29.984	1287.839	1227.692
810.203	29.946	1286.683	1226.189
811.218	30.086	1284.811	1225.190
812.232	29.806	1284.114	1222.520
813.247	29.698	1282.716	1220.328
814.261	29.763	1282.490	1220.396
815.276	29.988	1281.720	1221.005
816.291	29.629	1280.504	1217.326
817.305	29.471	1279.435	1215.120
818.320	29.574	1277.331	1213.656
819.334	29.459	1276.766	1212.217
820.349	29.454	1275.464	1210.803
821.364	29.366	1273.499	1208.211
822.378	29.346	1272.379	1206.872
823.393	29.264	1270.702	1204.596
824.407	29.217	1269.682	1203.177
825.422	29.328	1269.670	1203.753
826.437	29.223	1268.510	1201.821
827.451	29.285	1267.063	1200.710
828.466	29.757	1267.508	1204.078
829.480	30.804	1266.676	1209.988
830.495	30.175	1263.852	1203.044
831.509	29.400	1262.309	1196.383
832.524	29.202	1260.990	1193.700
833.539	29.072	1260.241	1192.002
834.553	29.145	1258.351	1190.547
835.568	29.015	1257.238	1188.505
836.582	29.147	1256.959	1188.959
837.597	29.272	1255.779	1188.509
838.612	29.360	1254.327	1187.563
839.626	29.340	1253.384	1186.400
840.641	29.484	1253.163	1186.977
841.655	29.568	1252.231	1186.494
842.670	29.606	1251.356	1185.769
843.685	29.489	1249.748	1183.352
844.699	29.592	1248.876	1183.047
845.714	29.510	1247.212	1180.801
846.728	29.305	1246.857	1179.005
847.743	29.396	1245.949	1178.586
848.758	29.365	1244.465	1176.847
849.772	29.072	1243.498	1173.912
850.787	29.119	1242.024	1172.682
851.801	28.839	1240.899	1169.687
852.816	29.014	1239.457	1169.307
853.831	29.143	1237.419	1168.068
854.845	28.991	1236.183	1165.793
855.860	28.971	1234.797	1164.217
856.874	28.979	1234.458	1163.810
857.889	29.422	1233.865	1165.925
858.904	29.940	1233.594	1168.818
859.918	30.702	1232.873	1172.824
860.933	31.135	1232.479	1175.052
861.947	30.639	1230.159	1169.565
862.962	29.793	1228.100	1162.126
863.977	29.562	1226.554	1159.067
864.991	29.161	1225.339	1155.255
866.006	28.958	1224.588	1153.131
867.020	29.033	1223.263	1152.213
868.035	28.903	1222.131	1150.191
869.049	29.115	1221.437	1150.735
870.064	29.106	1220.606	1149.759
871.079	29.123	1219.774	1148.945
872.093	29.066	1219.736	1148.415
873.108	29.170	1218.466	1147.733
874.122	29.415	1216.808	1147.564
875.137	29.160	1216.983	1145.998
876.152	29.206	1216.114	1145.328
877.166	29.460	1214.170	1144.946
878.181	29.177	1212.908	1141.855
879.195	29.131	1212.231	1140.797
880.210	29.052	1210.991	1138.997
881.225	29.219	1209.934	1138.909
882.239	29.022	1209.108	1136.770
883.254	28.977	1208.313	1135.607
884.268	28.904	1207.444	1134.200
885.283	28.911	1206.458	1133.181
886.298	29.063	1204.374	1132.029
887.312	28.949	1203.415	1130.290
888.327	28.949	1202.746	1129.522
889.341	28.880	1201.124	1127.443
890.356	28.695	1201.369	1126.395
891.371	28.870	1200.769	1126.775
892.385	28.890	1200.028	1126.072
893.400	28.900	1199.515	1125.517
894.414	29.048	1198.505	1125.342
895.429	29.586	1198.027	1128.063
896.444	30.593	1198.199	1134.266
897.458	31.932	1198.373	1142.503
898.473	30.987	1196.700	1134.990
899.487	29.819	1193.839	1125.004
900.502	29.346	1191.474	1119.756
901.517	29.123	1189.895	1116.779
902.531	28.773	1189.415	1114.062
903.546	28.885	1188.607	1113.851
904.560	29.024	1187.863	1113.870
905.575	28.984	1186.461	1112.180
906.589	28.878	1185.646	1110.635
907.604	28.972	1185.059	1110.523
