DTS Sentinel unit serial number:	SN409020Multiplexer serial number:	ORYXHardware model number:	OX4-SRSoftware version number:	ORYX F/W v3.00 Oryx Data Collector v3.7.2.0data status	okinstallation	HaddamTimeLapsedifferential loss correction	single-endedforward channel	channel 3reverse channel	N/Adate	2011/06/21time	13:46:16forward acquisition time	30.00reverse acquisition time	0.00gamma	498.7831k internal	0.1811k external	0.1811temperature offset calibration	1.0074default loss term (dB/km)	0.3790temperature slope calibration	1.3530multiplexer offset coefficient	1.0000multiplexer slope coefficient	1.0000fibre end	0.00T internal ref (°C)	35.56T ext. ref 1 (°C)	31.64T ext. ref 2 (°C)	0.22length (m)	temperature (°C)	Stokes	anti-Stokes-747.200	-93.166	-0.412	0.146
-746.185	287.089	0.209	0.486
-745.171	-18.273	0.359	0.288
-744.156	256.917	-0.176	0.389
-743.142	-43.025	-0.290	-0.188
-742.127	50.399	-0.198	0.240
-741.112	800.000	-0.063	0.275
-740.098	-79.395	-0.252	0.109
-739.083	-200.000	-0.035	0.267
-738.069	636.709	0.120	0.392
-737.054	-156.137	-0.006	-0.000
-736.039	-200.000	0.014	0.092
-735.025	-77.316	-0.400	-0.178
-734.010	132.240	-0.148	-0.246
-732.996	-38.823	0.366	-0.247
-731.981	1.208	0.183	0.169
-730.966	186.568	0.101	-0.194
-729.952	557.410	-0.013	-0.041
-728.937	-200.000	0.022	-0.140
-727.923	296.377	0.091	-0.216
-726.908	-158.995	-0.370	0.027
-725.894	187.452	-0.129	-0.247
-724.879	-60.596	-0.319	-0.173
-723.864	-186.565	0.370	0.007
-722.850	24.621	-0.182	-0.193
-721.835	800.000	0.099	-0.388
-720.821	-59.591	-0.021	-0.012
-719.806	-34.950	-0.263	-0.184
-718.791	-171.743	-0.087	-0.004
-717.777	-110.730	0.285	-0.075
-716.762	-136.907	-0.613	0.089
-715.748	74.945	-0.118	-0.159
-714.733	-200.000	0.033	-0.432
-713.718	-36.475	0.478	-0.329
-712.704	-200.000	-0.048	-0.524
-711.689	55.410	0.075	-0.094
-710.675	800.000	0.112	-0.629
-709.660	36.421	-0.281	-0.319
-708.645	-200.000	0.015	0.206
-707.631	-136.586	-0.008	-0.001
-706.616	123.398	0.167	-0.270
-705.602	169.956	-0.168	-0.308
-704.587	-88.509	-0.415	0.158
-703.572	322.440	-0.153	0.374
-702.558	800.000	-0.041	0.170
-701.543	-200.000	0.032	0.202
-700.529	-42.807	0.453	0.295
-699.514	16.042	0.286	-0.288
-698.499	-34.818	-0.223	-0.156
-697.485	800.000	0.143	-0.613
-696.470	-83.561	-0.243	0.099
-695.456	-131.155	0.166	0.028
-694.441	51.557	-0.275	-0.335
-693.426	-68.223	-0.155	-0.077
-692.412	377.179	-0.047	0.123
-691.397	314.231	-0.084	0.204
-690.383	755.060	0.002	0.006
-689.368	-73.058	0.182	-0.085
-688.354	561.726	-0.068	0.212
-687.339	86.285	-0.216	-0.306
-686.324	-117.783	-0.053	-0.012
-685.310	123.019	0.255	-0.410
-684.295	277.833	0.038	0.087
-683.281	-200.000	0.005	-0.316
-682.266	-54.677	-0.386	-0.223
-681.251	-134.369	-0.248	-0.039
-680.237	57.046	-0.043	-0.054
-679.222	-183.061	0.295	-0.007
-678.208	123.949	0.161	-0.260
-677.193	129.491	0.224	-0.368
-676.178	800.000	-0.020	0.110
-675.164	235.341	0.097	-0.205
-674.149	-82.573	-0.261	-0.108
-673.135	132.256	-0.057	-0.094
-672.120	119.115	-0.282	-0.447
-671.105	-128.242	-0.539	0.098
-670.091	56.969	0.411	-0.514
-669.076	-200.000	-0.025	0.219
-668.062	71.610	0.419	-0.559
-667.047	18.276	0.059	-0.061
-666.032	4.805	-0.408	-0.383
-665.018	195.459	-0.045	-0.087
-664.003	11.790	-0.174	-0.171
-662.989	-121.572	0.240	-0.051
-661.974	354.875	0.069	0.176
-660.959	5.883	-0.173	0.164
-659.945	-189.004	-0.763	-0.011
-658.930	800.000	-0.014	-0.065
-657.916	17.513	0.037	-0.038
-656.901	249.756	-0.198	0.431
-655.886	-97.379	-0.247	0.082
-654.872	-6.159	0.308	0.269
-653.857	-146.248	0.213	-0.024
-652.843	-200.000	0.026	-0.319
-651.828	-200.000	0.034	-0.576
-650.814	209.139	-0.267	-0.538
-649.799	-23.617	-0.413	-0.316
-648.784	-200.000	0.006	0.706
-647.770	2.768	-0.153	-0.142
-646.755	190.561	-0.117	0.226
-645.741	-105.205	0.084	-0.025
-644.726	-200.000	0.027	0.470
-643.711	236.614	-0.189	-0.402
-642.697	155.131	-0.136	0.240
-641.682	800.000	-0.076	0.315
-640.668	500.808	0.193	-0.571
-639.653	700.541	-0.182	-0.617
-638.638	800.000	-0.185	-0.673
-637.624	-128.763	-0.465	-0.083
-636.609	144.632	-0.081	0.139
-635.595	-47.390	0.247	-0.153
-634.580	-84.682	0.413	0.165
-633.565	154.657	-0.284	-0.501
-632.551	56.560	0.102	0.127
-631.536	52.072	-0.113	-0.138
-630.522	32.065	0.227	0.250
-629.507	-200.000	0.015	0.113
-628.492	-117.318	-0.401	-0.092
-627.478	-116.735	-0.308	-0.072
-626.463	22.078	-0.076	-0.080
-625.449	114.647	0.163	-0.254
-624.434	227.526	0.283	-0.590
-623.419	-200.000	-0.027	-0.185
-622.405	-36.134	-0.111	0.076
-621.390	4.464	-0.160	-0.150
-620.376	105.456	0.098	0.148
-619.361	-138.709	0.445	-0.062
-618.346	-159.713	-0.140	-0.010
-617.332	-57.061	-0.185	-0.104
-616.317	-99.136	-0.171	-0.055
-615.303	-41.798	0.067	-0.044
-614.288	-123.136	0.444	0.090
-613.273	156.533	-0.264	-0.466
-612.259	-200.000	-0.006	0.528
-611.244	-96.076	-0.030	-0.010
-610.230	-200.000	-0.030	-0.530
-609.215	156.485	0.069	-0.122
-608.201	-67.360	0.108	0.054
-607.186	-173.972	0.237	0.009
-606.171	-99.643	0.349	0.111
-605.157	-123.149	-0.414	0.084
-604.142	121.721	-0.097	0.155
-603.128	-57.134	0.392	0.220
-602.113	294.417	-0.097	-0.228
-601.098	800.000	-0.077	-0.290
-600.084	-65.516	-0.317	-0.162
-599.069	-20.397	-0.072	-0.056
-598.055	91.333	0.069	-0.099
-597.040	44.173	-0.177	-0.207
-596.025	-195.926	-0.520	-0.005
-595.011	-200.000	0.050	0.610
-593.996	-178.584	-0.245	-0.007
-592.982	-159.008	0.388	0.028
-591.967	27.333	-0.149	-0.160
-590.952	-16.590	-0.341	-0.276
-589.938	171.329	-0.093	-0.171
-588.923	-115.969	-0.357	-0.084
-587.909	39.867	-0.036	-0.041
-586.894	10.469	0.244	0.237
-585.879	111.918	-0.384	0.592
-584.865	-160.214	-0.273	-0.019
-583.850	-96.341	-0.322	-0.108
-582.836	-60.966	-0.210	-0.113
-581.821	-200.000	-0.065	-0.556
-580.806	206.761	-0.071	-0.141
-579.792	-167.323	-0.371	0.019
-578.777	59.928	-0.125	0.157
-577.763	4.701	0.244	0.229
-576.748	157.916	-0.123	-0.218
-575.733	-131.647	-0.352	-0.058
-574.719	-146.727	-0.160	-0.017
-573.704	-133.268	-0.320	-0.051
-572.690	-46.998	-0.228	0.142
-571.675	-119.042	0.221	0.049
-570.661	542.994	-0.143	-0.437
-569.646	54.153	0.131	0.161
-568.631	-20.669	0.115	0.090
-567.617	667.398	-0.085	0.281
-566.602	-62.830	0.544	0.286
-565.588	-34.711	0.217	0.151
-564.573	-200.000	-0.054	0.315
-563.558	151.472	-0.121	-0.210
-562.544	800.000	0.044	-0.209
-561.529	791.760	0.110	0.389
-560.515	319.732	0.073	0.177
-559.500	-127.448	-0.189	0.035
-558.485	0.886	0.447	0.408
-557.471	-116.836	0.518	-0.120
-556.456	-126.143	0.564	0.107
-555.442	351.283	-0.138	-0.349
-554.427	-129.987	-0.101	-0.017
-553.412	-59.026	-0.120	-0.066
-552.398	-42.712	0.420	-0.272
-551.383	-77.238	0.446	-0.197
-550.369	12.062	-0.109	-0.107
-549.354	244.511	0.074	0.159
-548.339	-143.752	0.121	-0.014
-547.325	-200.000	-0.012	-0.128
-546.310	800.000	0.100	0.491
-545.296	-134.452	-0.127	0.020
-544.281	-116.837	0.269	-0.062
-543.266	23.884	0.428	-0.450
-542.252	-15.315	-0.325	0.265
-541.237	82.701	0.032	0.045
-540.223	-86.969	-0.204	-0.079
-539.208	-131.233	0.325	0.055
-538.193	28.919	0.206	-0.222
-537.179	-200.000	0.032	0.224
-536.164	800.000	-0.052	-0.207
-535.150	-143.242	0.158	0.019
-534.135	-80.541	-0.296	0.125
-533.121	121.322	-0.234	0.371
-532.106	263.272	0.283	0.629
-531.091	-22.158	0.112	0.086
-530.077	-94.446	-0.470	0.162
-529.062	-90.369	-0.381	0.140
-528.048	-77.195	-0.245	-0.108
-527.033	-50.923	-0.190	0.113
-526.018	-169.207	0.241	-0.011
-525.004	-187.141	-0.096	-0.002
-523.989	-93.874	-0.335	-0.117
-522.975	169.152	-0.189	0.345
-521.960	261.175	0.095	-0.211
-520.945	-39.373	0.161	-0.107
-519.931	53.063	-0.253	-0.309
-518.916	-64.296	0.417	0.215
-517.902	16.020	0.016	0.016
-516.887	-168.210	0.173	0.008
-515.872	800.000	-0.038	0.181
-514.858	-38.362	0.492	-0.331
-513.843	430.880	0.135	0.374
-512.829	-200.000	0.030	-0.357
-511.814	-105.464	0.378	-0.109
-510.799	-146.162	0.462	-0.051
-509.785	-200.000	0.005	0.320
-508.770	-146.001	-0.342	0.038
-507.756	-126.346	-0.483	0.091
-506.741	63.514	-0.134	-0.172
-505.726	53.442	0.225	0.275
-504.712	-96.933	-0.414	0.137
-503.697	-200.000	-0.016	0.150
-502.683	752.816	-0.161	0.556
-501.668	16.918	-0.246	-0.248
-500.653	800.000	0.169	0.638
-499.639	297.975	0.152	0.358
-498.624	361.708	-0.022	-0.057
-497.610	106.217	0.135	0.204
-496.595	800.000	-0.131	0.512
-495.581	24.785	-0.261	0.275
-494.566	800.000	0.109	0.422
-493.551	102.489	0.083	0.124
-492.537	-55.714	0.341	-0.193
-491.522	19.001	-0.264	-0.269
-490.508	8.871	0.167	0.160
-489.493	39.928	-0.122	-0.140
-488.478	-200.000	-0.015	0.164
-487.464	-57.717	0.523	0.290
-486.449	-63.434	-0.317	0.165
-485.435	-198.721	0.258	-0.002
-484.420	-37.584	0.474	-0.320
-483.405	-72.643	0.195	0.091
-482.391	218.188	-0.249	-0.508
-481.376	-200.000	-0.002	0.247
-480.362	-181.754	-0.131	0.003
-479.347	-73.278	0.068	-0.031
-478.332	21.800	0.191	-0.197
-477.318	181.757	-0.123	-0.231
-476.303	-149.255	0.263	0.026
-475.289	160.926	-0.200	0.356
-474.274	-200.000	0.002	-0.182
-473.259	487.480	-0.182	0.530
-472.245	-124.073	0.099	-0.020
-471.230	-181.808	0.091	0.002
-470.216	-108.077	-0.191	0.052
-469.201	-60.090	-0.447	-0.241
-468.186	20.866	0.303	0.312
-467.172	128.795	-0.070	0.114
-466.157	-200.000	-0.017	-0.711
-465.143	800.000	-0.130	-0.541
-464.128	-200.000	-0.020	-0.295
-463.113	-76.273	0.233	0.104
-462.099	-200.000	-0.047	-0.445
-461.084	34.215	-0.029	-0.032
-460.070	-0.114	-0.237	-0.214
-459.055	-43.767	-0.328	0.210
-458.040	-200.000	-0.032	-0.218
-457.026	800.000	-0.112	-0.407
-456.011	34.151	0.060	-0.066
-454.997	-53.842	0.048	-0.027
-453.982	-82.527	0.168	-0.069
-452.968	-200.000	0.085	-0.576
-451.953	37.459	0.194	-0.219
-450.938	-36.602	-0.228	0.156
-449.924	56.186	0.280	-0.345
-448.909	4.508	-0.238	0.221
-447.895	-58.699	-0.237	0.130
-446.880	438.237	-0.155	0.432
-445.865	-9.192	-0.202	0.171
-444.851	-88.908	0.360	-0.135
-443.836	-41.636	-0.344	-0.224
-442.822	800.000	0.049	0.254
-441.807	-162.052	0.256	-0.016
-440.792	800.000	-0.091	0.418
-439.778	-44.867	-0.259	0.163
-438.763	-103.870	0.191	-0.056
-437.749	-158.551	-0.292	0.021
-436.734	60.032	-0.206	-0.258
-435.719	210.081	-0.061	0.122
-434.705	-200.000	-0.003	0.244
-433.690	-73.166	0.344	0.159
-432.676	189.982	-0.214	-0.409
-431.661	35.696	0.064	-0.072
-430.646	-25.846	0.074	0.055
-429.632	-110.821	0.174	0.045
-428.617	-200.000	0.003	-0.081
-427.603	-17.809	0.125	0.099
-426.588	457.583	0.232	-0.658
-425.573	-45.482	-0.406	0.254
-424.559	110.795	-0.161	-0.246
-423.544	32.898	-0.189	-0.208
-422.530	-159.393	0.198	0.014
-421.515	-95.553	-0.219	0.074
-420.500	-30.479	0.290	0.208
-419.486	800.000	-0.018	0.089
-418.471	50.800	-0.110	0.132
-417.457	-77.850	-0.401	0.175
-416.442	-121.490	0.150	-0.031
-415.428	6.456	0.180	-0.169
-414.413	-74.551	-0.275	0.125
-413.398	-136.225	-0.655	-0.096
-412.384	-200.000	-0.039	0.616
-411.369	-144.922	0.535	0.061
-410.355	201.881	0.186	0.364
-409.340	-88.627	-0.381	0.143
-408.325	-69.674	-0.212	-0.102
-407.311	-95.282	-0.350	0.119
-406.296	-153.765	-0.529	-0.045
-405.282	800.000	-0.006	-0.031
-404.267	71.488	0.146	-0.192
-403.252	307.809	0.066	0.157
-402.238	201.609	-0.124	-0.244
-401.223	-200.000	-0.056	0.434
-400.209	95.694	0.232	-0.336
-399.194	85.214	-0.036	0.050
-398.179	-160.056	0.200	-0.014
-397.165	-84.241	-0.202	0.081
-396.150	250.678	-0.040	-0.086
-395.136	-50.841	0.367	-0.218
-394.121	-5.423	-0.802	-0.697
-393.106	49.029	-0.221	-0.264
-392.092	191.565	-0.051	0.098
-391.077	-200.000	0.000	0.542
-390.063	18.672	0.339	0.344
-389.048	-43.040	-0.224	-0.144
-388.033	-86.814	-0.283	0.109
-387.019	460.529	0.130	-0.368
-386.004	309.982	-0.202	-0.480
-384.990	-200.000	-0.007	0.041
-383.975	-72.825	-0.148	0.069
-382.960	172.174	0.169	0.309
-381.946	114.286	0.020	-0.031
-380.931	43.614	0.120	-0.139
-379.917	-127.481	0.231	0.042
-378.902	-26.424	-0.200	0.148
-377.888	131.871	-0.206	0.336
-376.873	138.578	-0.126	0.209
-375.858	73.427	0.279	0.369
-374.844	231.484	0.179	-0.372
-373.829	-157.708	0.647	0.048
-372.815	-87.405	-0.129	0.049
-371.800	332.406	0.087	-0.214
-370.785	50.558	0.564	-0.675
-369.771	-62.503	0.404	-0.212
-368.756	-200.000	-0.006	0.193
-367.742	179.722	0.136	-0.252
-366.727	-200.000	-0.004	0.304
-365.712	-77.465	-0.180	-0.079
-364.698	-191.286	0.351	-0.004
-363.683	-148.954	0.064	0.006
-362.669	59.329	-0.057	0.071
-361.654	-106.201	0.313	0.088
-360.639	127.954	0.307	0.494
-359.625	32.816	0.057	-0.062
-358.610	800.000	-0.056	-0.255
-357.596	9.027	-0.265	-0.253
-356.581	-13.898	-0.229	0.187
-355.566	-127.536	-0.260	0.047
-354.552	800.000	-0.021	-0.113
-353.537	-155.632	0.145	-0.012
-352.523	-61.198	-0.182	0.097
-351.508	-153.294	0.469	-0.041
-350.493	-125.855	0.455	0.086
-349.479	-74.624	0.415	0.188
-348.464	-44.358	0.307	0.194
-347.450	-27.082	-0.230	0.169
-346.435	-66.057	0.305	-0.153
-345.420	-66.400	-0.444	0.222
-344.406	-59.018	0.084	-0.046
-343.391	343.177	-0.123	0.305
-342.377	-68.076	-0.293	0.144
-341.362	-68.150	-0.184	0.090
-340.348	-159.223	-0.190	-0.013
-339.333	-200.000	-0.001	0.029
-338.318	114.192	-0.078	0.121
-337.304	45.248	-0.140	-0.164
-336.289	107.966	-0.080	-0.121
-335.275	-157.318	0.227	-0.017
-334.260	-164.158	0.309	-0.018
-333.245	20.550	0.275	-0.281
-332.231	-64.259	-0.174	0.089
-331.216	304.813	-0.032	0.075
-330.202	8.197	-0.224	0.212
-329.187	106.341	-0.186	-0.279
-328.172	-115.821	0.254	0.059
-327.158	-22.698	-0.424	0.323
-326.143	-200.000	0.025	0.513
-325.129	-89.357	0.144	-0.053
-324.114	108.369	-0.120	0.181
-323.099	-97.948	0.330	0.107
-322.085	-82.866	0.370	-0.150
-321.070	-16.788	-0.307	-0.245
-320.056	-5.603	0.149	0.129
-319.041	7.120	0.256	0.241
-318.026	280.695	0.235	0.534
-317.012	-200.000	0.010	0.177
-315.997	-46.108	0.219	0.136
-314.983	-25.939	-0.052	-0.039
-313.968	321.513	0.178	-0.429
-312.953	112.261	0.289	0.441
-311.939	-132.479	-0.119	-0.019
-310.924	77.631	-0.090	-0.122
-309.910	-100.638	0.242	-0.075
-308.895	-13.293	0.269	0.220
-307.880	-200.000	-0.002	0.379
-306.866	800.000	-0.053	0.200
-305.851	-66.786	-0.165	0.082
-304.837	267.201	0.065	0.144
-303.822	67.959	0.187	-0.241
-302.807	258.403	0.138	0.302
-301.793	296.287	-0.094	-0.218
-300.778	227.447	-0.043	-0.090
-299.764	-8.176	-0.551	-0.468
-298.749	524.910	-0.220	-0.655
-297.735	-155.710	-0.256	-0.020
-296.720	-98.189	-0.413	-0.133
-295.705	75.879	0.179	0.239
-294.691	134.548	0.154	-0.252
-293.676	73.966	0.196	0.260
-292.662	-2.697	0.135	0.119
-291.647	20.624	-0.126	-0.128
-290.632	-110.133	-0.303	0.079
-289.618	5.488	-0.362	-0.337
-288.603	-106.303	0.269	-0.075
-287.589	73.416	0.194	-0.257
-286.574	-180.030	0.174	-0.005
-285.559	-200.000	0.004	0.205
-284.545	44.302	0.302	0.350
-283.530	-138.072	-0.344	-0.048
-282.516	388.383	-0.053	0.140
-281.501	237.189	0.091	-0.191
-280.486	151.155	0.058	0.100
-279.472	55.955	-0.070	-0.085
-278.457	-200.000	0.012	-0.076
-277.443	136.015	0.109	-0.180
-276.428	-44.344	-0.369	0.232
-275.413	-77.026	-0.311	0.136
-274.399	-77.548	0.381	-0.166
-273.384	153.136	0.134	0.232
-272.370	-123.236	0.195	0.039
-271.355	167.306	0.171	-0.307
-270.340	-200.000	-0.200	-0.000
-269.326	-200.000	0.023	0.438
-268.311	-140.430	0.360	0.047
-267.297	-68.102	-0.159	0.078
-266.282	-170.882	-0.478	0.020
-265.267	531.665	-0.065	-0.195
-264.253	705.345	0.103	0.343
-263.238	91.048	-0.180	0.255
-262.224	11.315	0.245	0.237
-261.209	-51.484	-0.276	0.162
-260.195	-114.082	-0.458	-0.111
-259.180	-92.621	-0.113	0.040
-258.165	800.000	0.079	0.333
-257.151	181.792	0.114	0.213
-256.136	800.000	-0.029	0.131
-255.122	402.532	0.123	0.327
-254.107	134.659	-0.178	0.292
-253.092	205.136	-0.113	0.222
-252.078	-197.546	-0.221	0.002
-251.063	37.106	0.305	-0.340
-250.049	-116.400	0.731	-0.169
-249.034	-144.781	0.398	0.045
-248.019	570.098	0.102	0.315
-247.005	290.503	-0.105	-0.240
-245.990	-93.765	-0.435	0.150
-244.976	-108.418	0.584	-0.157
-243.961	565.277	-0.051	-0.156
-242.946	-63.389	-0.372	0.192
-241.932	-61.663	0.087	-0.046
-240.917	175.206	0.288	0.526
-239.903	-20.717	-0.434	0.335
-238.888	151.083	0.116	-0.199
-237.873	-200.000	0.030	0.300
-236.859	-200.000	0.010	0.123
-235.844	-200.000	0.003	-0.228
-234.830	-36.900	-0.182	0.123
-233.815	-45.490	0.193	-0.120
-232.800	-200.000	0.002	-0.397
-231.786	27.525	0.277	0.294
-230.771	62.343	-0.328	0.413
-229.757	800.000	0.078	-0.371
-228.742	-200.000	0.010	-0.062
-227.727	-10.752	0.038	-0.032
-226.713	192.407	-0.080	-0.152
-225.698	-90.475	0.191	0.069
-224.684	19.808	0.247	0.251
-223.669	-71.927	0.108	-0.051
-222.655	660.607	-0.113	0.368
-221.640	402.731	-0.133	0.354
-220.625	52.515	-0.207	-0.249
-219.611	-18.691	-0.203	-0.159
-218.596	-7.057	0.131	0.112
-217.582	60.377	0.223	-0.278
-216.567	-95.715	-0.466	-0.156
-215.552	500.644	0.160	0.467
-214.538	192.968	-0.145	0.276
-213.523	-200.000	-0.050	-0.720
-212.509	800.000	-0.078	-0.422
-211.494	-73.234	-0.594	0.272
-210.479	56.162	0.147	-0.180
-209.465	-200.000	-0.006	0.288
-208.450	-200.000	0.002	0.067
-207.436	393.798	-0.103	-0.270
-206.421	-200.000	0.006	-0.326
-205.406	-140.870	-0.091	-0.012
-204.392	-157.557	0.758	-0.056
-203.377	-35.531	0.402	0.274
-202.363	-200.000	0.002	-0.040
-201.348	-149.013	-0.354	-0.035
-200.333	-200.000	-0.016	-0.161
-199.319	412.972	-0.151	0.407
-198.304	-107.055	0.344	0.095
-197.290	-200.000	0.034	0.322
-196.275	-200.000	-0.426	0.001
-195.260	-106.533	-0.453	0.126
-194.246	-200.000	-0.045	-0.447
-193.231	294.062	0.164	0.377
-192.217	-49.279	0.308	-0.185
-191.202	-200.000	-0.014	0.285
-190.187	-140.946	-0.145	0.018
-189.173	-75.718	0.332	-0.147
-188.158	15.939	0.335	-0.331
-187.144	406.454	0.181	-0.482
-186.129	-152.370	-0.238	0.021
-185.114	-73.355	-0.368	-0.168
-184.100	-19.501	-0.162	-0.126
-183.085	40.715	0.330	-0.374
-182.071	13.536	-0.170	-0.166
-181.056	-22.415	0.501	-0.381
-180.042	-21.463	0.501	-0.383
-179.027	190.061	-0.038	0.071
-178.012	-200.000	0.044	-0.551
-176.998	30.988	0.561	-0.605
-175.983	44.278	-0.260	-0.300
-174.969	54.663	-0.146	0.177
-173.954	-105.291	-0.659	0.187
-172.939	-50.551	0.458	-0.270
-171.925	-54.906	0.350	-0.198
-170.910	221.720	-0.127	-0.257
-169.896	142.096	0.043	0.072
-168.881	-67.577	0.225	-0.110
-167.866	9.011	0.150	0.142
-166.852	0.093	-0.172	-0.153
-165.837	-88.112	-0.590	-0.221
-164.823	-41.454	0.261	0.168
-163.808	-123.662	0.225	0.044
-162.793	800.000	-0.119	-0.428
-161.779	-200.000	0.024	-0.211
-160.764	-50.900	0.074	0.044
-159.750	800.000	-0.024	-0.124
-158.735	-44.678	0.336	-0.210
-157.720	-47.949	0.193	-0.117
-156.706	659.773	-0.048	-0.156
-155.691	181.452	0.135	-0.251
-154.677	203.481	-0.149	-0.290
-153.662	176.804	0.185	0.339
-152.647	-64.406	0.590	0.300
-151.633	-181.160	-0.142	0.003
-150.618	-39.888	-0.312	0.204
-149.604	82.029	0.199	0.271
-148.589	-200.000	-0.055	0.483
-147.574	-162.231	-0.240	-0.015
-146.560	-129.450	-0.192	-0.033
-145.545	202.403	0.372	-0.722
-144.531	-21.458	0.377	-0.288
-143.516	187.624	0.254	0.476
-142.502	173.391	0.298	0.540
-141.487	214.237	0.061	0.122
-140.472	600.685	0.041	0.130
-139.458	21.056	-0.104	-0.106
-138.443	59.385	0.269	0.332
-137.429	-200.000	0.019	0.271
-136.414	97.883	0.196	-0.284
-135.399	120.419	-0.176	0.274
-134.385	-122.468	-0.324	0.066
-133.370	-200.000	0.020	-0.206
-132.356	23.038	0.105	0.108
-131.341	-159.246	-0.052	0.004
-130.326	-144.267	0.239	-0.028
-129.312	-86.018	-0.248	-0.096
-128.297	411.807	-0.047	-0.126
-127.283	239.698	-0.248	-0.520
-126.268	-100.360	-0.127	0.039
-125.253	-200.000	0.022	-0.253
-124.239	-90.814	0.487	-0.175
-123.224	-200.000	-0.039	0.386
-122.210	-16.855	0.267	0.211
-121.195	-97.542	-0.041	-0.013
-120.180	-61.213	-0.226	0.119
-119.166	46.927	0.398	-0.464
-118.151	117.015	0.096	0.149
-117.137	-21.502	-0.582	-0.444
-116.122	44.127	0.031	-0.035
-115.107	453.051	-0.071	-0.198
-114.093	15.047	0.192	-0.189
-113.078	-77.477	0.183	0.079
-112.064	-200.000	-0.038	0.251
-111.049	-139.480	-0.347	0.046
-110.034	120.356	0.061	0.095
-109.020	-51.862	0.136	-0.079
-108.005	-189.793	-0.564	-0.008
-106.991	-200.000	0.009	-0.226
-105.976	1.502	-0.336	0.302
-104.962	39.693	0.196	0.220
-103.947	-200.000	0.019	0.598
-102.932	-32.773	-0.372	-0.259
-101.918	14.795	-0.282	0.276
-100.903	308.777	0.083	0.194
-99.889	-3.798	0.131	-0.113
-98.874	800.000	-0.011	-0.041
-97.859	241.816	0.283	0.595
-96.845	-153.091	0.184	0.016
-95.830	686.320	-0.138	-0.453
-94.816	-200.000	0.134	-0.787
-93.801	307.587	-0.150	-0.351
-92.786	-200.000	0.052	0.348
-91.772	1.747	-0.204	0.184
-90.757	239.948	-0.172	0.361
-89.743	-107.843	0.414	-0.112
-88.728	154.173	0.078	0.134
-87.713	-42.443	-0.531	-0.338
-86.699	-35.364	0.376	0.255
-85.684	-96.005	0.088	-0.029
-84.670	-157.030	0.275	-0.021
-83.655	-85.353	0.307	-0.119
-82.640	-200.000	-0.017	-0.635
-81.626	99.939	0.155	0.226
-80.611	148.731	0.076	-0.128
-79.597	-200.000	0.057	-0.545
-78.582	-43.971	0.361	-0.226
-77.567	-36.205	-0.151	-0.101
-76.553	-10.988	-0.212	0.175
-75.538	-160.927	0.208	-0.013
-74.524	65.223	-0.288	0.365
-73.509	-48.554	-0.266	0.159
-72.494	800.000	-0.054	0.196
-71.480	19.611	0.397	-0.399
-70.465	-200.000	-0.021	-0.160
-69.451	-42.831	0.195	-0.124
-68.436	-67.748	0.346	0.169
-67.422	-148.012	-0.369	-0.038
-66.407	169.763	-0.105	0.189
-65.392	430.199	-0.092	0.249
-64.378	-172.751	-0.231	-0.009
-63.363	-110.895	-0.308	-0.079
-62.349	-143.419	-0.401	0.047
-61.334	88.006	-0.951	-1.321
-60.319	-74.694	0.368	-0.165
-59.305	394.131	-2.171	-5.680
-58.290	5.193	2.421	2.229
-57.276	477.555	3.502	9.957
-56.261	-200.000	12.467	206.385
-55.246	488.693	1136.418	3262.210
-54.232	64.992	2793.365	3530.242
-53.217	72.253	2707.397	3529.218
-52.203	59.391	2437.355	3004.496
-51.188	43.844	2090.509	2394.087
-50.173	38.623	1960.785	2187.041
-49.159	36.578	1949.504	2151.520
-48.144	36.204	1945.063	2142.359
-47.130	35.963	1942.627	2136.905
-46.115	35.981	1940.489	2134.663
-45.100	35.873	1939.286	2132.056
-44.086	35.830	1937.793	2129.852
-43.071	35.884	1936.267	2128.694
-42.057	35.792	1934.958	2126.140
-41.042	35.886	1933.636	2125.650
-40.027	35.873	1931.890	2123.505
-39.013	35.771	1930.431	2120.686
-37.998	35.730	1929.047	2118.623
-36.984	35.739	1928.076	2117.576
-35.969	35.677	1926.574	2115.153
-34.954	35.663	1925.395	2113.624
-33.940	35.810	1923.974	2113.601
-32.925	35.717	1923.236	2111.685
-31.911	35.750	1921.435	2109.988
-30.896	35.646	1921.054	2108.341
-29.881	35.746	1919.034	2107.135
-28.867	35.658	1917.283	2104.167
-27.852	35.507	1917.195	2102.323
-26.838	35.608	1914.376	2100.260
-25.823	35.672	1912.864	2099.219
-24.809	35.545	1911.680	2096.445
-23.794	35.582	1911.079	2096.098
-22.779	35.530	1909.992	2094.256
-21.765	35.606	1908.226	2093.074
-20.750	35.480	1907.437	2090.745
-19.736	35.527	1906.437	2090.081
-18.721	35.476	1904.811	2087.659
-17.706	35.459	1903.314	2085.740
-16.692	35.599	1901.963	2085.709
-15.677	35.499	1901.171	2083.671
-14.663	35.440	1899.839	2081.479
-13.648	35.439	1899.098	2080.581
-12.633	35.457	1897.408	2078.841
-11.619	35.437	1895.955	2076.950
-10.604	35.323	1894.924	2074.494
-9.590	35.406	1893.918	2074.218
-8.575	35.573	1891.955	2073.799
-7.560	35.433	1891.656	2071.864
-6.546	35.473	1889.569	2069.934
-5.531	35.363	1888.973	2068.005
-4.517	35.406	1887.800	2067.102
-3.502	35.400	1886.557	2065.599
-2.487	35.752	1884.702	2067.291
-1.473	35.805	1882.072	2064.890
-0.458	36.311	1864.405	2050.833
0.556	33.568	1999.811	2155.618
1.571	33.490	2220.978	2392.745
2.586	35.816	2272.054	2477.637
3.600	35.906	2275.059	2481.784
4.615	36.146	2276.079	2485.707
5.629	36.241	2273.508	2483.834
6.644	36.226	2271.414	2481.056
7.659	36.281	2270.656	2480.642
8.673	36.665	2268.604	2483.058
9.688	35.933	2271.973	2476.977
10.702	31.494	2337.050	2488.414
11.717	26.950	2397.755	2490.238
12.731	13.638	2362.785	2271.460
13.746	2.178	2333.075	2086.018
14.761	0.653	2326.768	2059.239
15.775	0.397	2325.567	2054.434
16.790	0.301	2324.280	2051.729
17.804	0.459	2321.146	2050.882
18.819	0.280	2321.765	2048.736
19.834	0.303	2319.655	2046.937
20.848	0.386	2317.525	2045.950
21.863	0.300	2316.595	2043.711
22.877	0.315	2314.201	2041.561
23.892	0.326	2311.167	2038.781
24.907	0.227	2310.474	2036.588
25.921	0.345	2308.142	2035.883
26.936	0.289	2305.636	2032.674
27.950	0.327	2303.337	2030.915
28.965	0.277	2301.091	2028.020
29.980	0.355	2300.160	2028.014
30.994	0.359	2298.232	2026.127
32.009	7.053	2320.841	2136.912
33.023	25.918	2382.265	2453.830
34.038	41.466	2424.254	2711.281
35.053	46.254	2432.547	2785.657
36.067	45.476	2425.429	2766.595
37.082	43.700	2419.439	2735.333
38.096	44.357	2420.647	2745.295
39.111	46.387	2423.570	2775.843
40.126	47.669	2425.486	2795.083
41.140	49.608	2430.275	2826.552
42.155	48.891	2424.115	2809.370
43.169	47.747	2420.309	2789.174
44.184	48.185	2418.699	2792.889
45.199	47.795	2415.826	2783.985
46.213	46.573	2411.220	2761.886
47.228	45.987	2409.094	2751.230
48.242	46.699	2409.269	2760.695
49.257	46.559	2407.275	2756.192
50.271	47.280	2406.103	2764.203
51.286	47.413	2404.556	2763.879
52.301	46.682	2400.494	2749.092
53.315	46.399	2396.398	2740.282
54.330	40.053	2373.299	2629.065
55.344	33.764	2352.886	2522.469
56.359	32.846	2348.801	2505.545
57.374	32.350	2345.642	2495.267
58.388	31.796	2341.611	2483.299
59.403	32.709	2339.677	2493.093
60.417	34.429	2342.219	2518.362
61.432	34.926	2340.840	2523.179
62.447	33.644	2336.197	2500.885
63.461	33.140	2332.065	2489.502
64.476	32.811	2329.193	2481.792
65.490	34.258	2333.910	2505.673
66.505	38.681	2347.974	2579.145
67.520	43.845	2361.877	2662.587
68.534	44.510	2360.441	2669.433
69.549	45.411	2361.195	2681.843
70.563	46.167	2360.930	2691.179
71.578	46.401	2359.251	2692.025
72.593	46.809	2358.133	2695.787
73.607	47.227	2357.979	2700.777
74.622	46.720	2353.278	2688.418
75.636	45.461	2347.763	2665.328
76.651	45.915	2348.108	2671.345
77.666	46.161	2347.110	2673.102
78.680	46.318	2344.903	2672.330
79.695	47.725	2348.875	2694.915
80.709	49.247	2351.540	2717.517
81.724	49.617	2349.407	2719.552
82.739	49.505	2346.492	2714.391
83.753	48.475	2340.356	2693.609
84.768	47.682	2336.971	2679.090
85.782	46.457	2332.907	2658.235
86.797	46.265	2329.791	2651.877
87.812	45.914	2327.096	2643.946
88.826	45.844	2325.119	2640.479
89.841	46.316	2324.419	2645.461
90.855	46.817	2322.068	2648.940
91.870	45.713	2317.988	2629.739
92.884	45.117	2315.550	2618.969
93.899	45.985	2316.435	2630.849
94.914	44.677	2310.388	2606.854
95.928	39.852	2294.730	2526.988
96.943	36.884	2286.501	2479.512
97.957	40.876	2297.701	2542.836
98.972	44.632	2303.278	2597.011
99.987	44.385	2300.011	2589.850
101.001	44.641	2299.205	2591.904
102.016	45.403	2298.845	2600.937
103.030	45.931	2299.451	2608.057
104.045	47.277	2300.593	2626.233
105.060	48.060	2299.749	2634.928
106.074	47.578	2296.106	2624.311
107.089	46.647	2292.914	2608.510
108.103	47.101	2293.522	2614.661
109.118	47.632	2293.931	2621.572
110.133	47.855	2291.265	2621.042
111.147	47.333	2287.813	2610.159
112.162	47.061	2285.434	2603.685
113.176	46.792	2282.396	2596.519
114.191	46.858	2280.811	2595.229
115.206	46.684	2278.620	2590.230
116.220	46.353	2275.092	2581.735
117.235	45.769	2271.619	2570.134
118.249	45.619	2268.947	2564.910
119.264	46.192	2269.503	2572.447
120.279	46.627	2269.388	2577.484
121.293	46.471	2266.112	2571.493
122.308	45.841	2263.237	2560.015
123.322	45.445	2262.660	2554.093
124.337	45.212	2258.399	2546.054
125.352	41.857	2245.970	2489.843
126.366	41.145	2246.057	2480.733
127.381	43.532	2249.026	2513.605
128.395	44.487	2249.082	2525.296
129.410	45.765	2250.374	2542.393
130.424	46.064	2249.808	2545.170
131.439	45.826	2246.705	2538.393
132.454	45.359	2244.397	2529.673
133.468	45.648	2243.835	2532.331
134.483	45.788	2241.332	2530.938
135.497	45.919	2240.870	2531.746
136.512	46.383	2240.351	2536.601
137.527	46.216	2236.379	2529.744
138.541	45.855	2235.184	2523.626
139.556	45.668	2234.143	2519.828
140.570	46.000	2232.827	2522.141
141.585	46.508	2232.834	2528.116
142.600	46.912	2232.222	2532.104
143.614	46.578	2230.335	2525.553
144.629	46.814	2229.467	2527.167
145.643	46.775	2226.366	2522.880
146.658	46.334	2223.459	2513.867
147.673	46.127	2220.922	2508.155
148.687	46.885	2221.545	2517.855
149.702	46.690	2220.171	2513.613
150.716	46.233	2216.195	2503.214
151.731	46.115	2215.919	2501.162
152.746	46.385	2215.051	2503.182
153.760	44.148	2205.895	2465.253
154.775	38.289	2188.865	2374.654
155.789	35.108	2180.813	2326.865
156.804	39.595	2192.554	2394.049
157.819	44.471	2200.330	2461.787
158.833	45.537	2201.055	2475.280
159.848	46.550	2201.297	2487.552
160.862	47.295	2201.936	2497.016
161.877	47.529	2201.126	2498.640
162.892	47.899	2201.141	2502.834
163.906	48.247	2201.052	2506.657
164.921	48.581	2200.166	2509.379
165.935	48.665	2198.282	2507.947
166.950	48.079	2194.890	2496.707
167.964	47.164	2188.957	2478.648
168.979	46.836	2186.939	2472.114
169.994	46.922	2186.522	2472.375
171.008	47.362	2185.143	2475.823
172.023	47.290	2183.386	2472.666
173.037	47.137	2181.963	2468.920
174.052	46.852	2179.913	2462.888
175.067	46.516	2177.443	2455.775
176.081	46.484	2175.870	2453.327
177.096	46.013	2173.750	2445.009
178.110	45.249	2169.276	2430.546
179.125	45.538	2169.642	2434.116
180.140	46.818	2170.843	2450.478
181.154	47.066	2169.890	2452.064
182.169	46.675	2167.184	2444.049
183.183	44.987	2159.911	2415.483
184.198	39.799	2141.251	2332.900
185.213	37.165	2138.939	2298.796
186.227	43.003	2154.677	2385.182
187.242	46.204	2158.507	2427.220
188.256	46.626	2157.495	2430.790
189.271	47.096	2157.286	2435.833
190.286	47.861	2158.050	2445.471
191.300	47.780	2154.321	2439.992
192.315	46.927	2150.940	2425.801
193.329	47.159	2149.872	2427.047
194.344	47.514	2150.563	2431.720
195.359	48.145	2150.279	2438.553
196.373	48.307	2148.353	2437.977
197.388	47.982	2144.889	2429.935
198.402	47.528	2141.619	2420.619
199.417	47.171	2139.400	2413.628
200.432	47.658	2138.138	2417.621
201.446	47.876	2138.058	2419.803
202.461	47.388	2133.714	2408.890
203.475	46.328	2129.727	2391.716
204.490	45.804	2127.224	2382.508
205.504	46.263	2126.326	2386.574
206.519	46.109	2122.779	2380.506
207.534	46.179	2121.807	2379.949
208.548	46.668	2120.782	2384.205
209.563	45.276	2114.926	2361.183
210.577	44.500	2113.545	2350.349
211.592	46.387	2116.782	2375.587
212.607	44.191	2105.861	2337.666
213.621	35.562	2083.573	2213.243
214.636	35.396	2088.097	2215.858
215.650	41.909	2102.499	2306.684
216.665	44.988	2106.852	2346.862
217.680	46.479	2108.080	2365.192
218.694	46.819	2109.062	2369.935
219.709	46.879	2106.120	2367.034
220.723	47.214	2105.152	2369.525
221.738	47.680	2106.040	2375.601
222.753	47.204	2102.639	2366.005
223.767	46.420	2099.095	2352.739
224.782	46.263	2095.359	2346.464
225.796	46.069	2095.124	2343.700
226.811	46.934	2096.169	2354.509
227.826	47.288	2094.818	2356.761
228.840	47.629	2093.713	2359.140
229.855	47.448	2091.836	2354.675
230.869	46.574	2087.616	2339.669
231.884	45.589	2083.973	2324.069
232.899	45.923	2084.163	2327.814
233.913	46.547	2084.747	2335.300
234.928	46.966	2084.502	2339.522
235.942	47.515	2083.724	2344.617
236.957	47.723	2082.618	2345.456
237.972	47.314	2080.583	2338.242
238.986	47.202	2079.283	2335.227
240.001	46.850	2075.217	2326.397
241.015	45.945	2072.306	2312.600
242.030	45.498	2068.773	2303.331
243.045	42.361	2056.577	2254.119
244.059	39.985	2053.646	2223.805
245.074	43.639	2060.747	2272.596
246.088	45.414	2061.881	2293.606
247.103	45.858	2061.604	2298.034
248.117	45.919	2060.371	2297.064
249.132	46.088	2059.357	2297.560
250.147	46.388	2057.049	2298.079
251.161	46.304	2055.430	2295.051
252.176	46.342	2054.853	2294.557
253.190	46.714	2052.980	2296.364
254.205	47.059	2051.875	2298.711
255.220	47.743	2053.330	2307.715
256.234	47.843	2052.337	2307.442
257.249	47.109	2048.656	2294.830
258.263	46.730	2047.780	2289.355
259.278	47.230	2047.667	2294.526
260.293	47.251	2046.133	2292.766
261.307	46.879	2042.859	2284.687
262.322	46.804	2040.671	2281.135
263.336	46.412	2037.281	2272.719
264.351	45.678	2033.886	2260.521
265.366	46.006	2034.033	2264.055
266.380	46.375	2033.004	2266.729
267.395	45.520	2029.937	2253.576
268.409	45.482	2028.627	2251.431
269.424	46.718	2030.648	2267.071
270.439	47.273	2029.753	2271.933
271.453	45.202	2020.715	2238.763
272.468	39.537	2003.769	2157.603
273.482	37.111	2001.551	2128.235
274.497	41.774	2011.159	2189.706
275.512	45.360	2015.024	2233.124
276.526	45.846	2014.207	2237.282
277.541	45.825	2012.743	2235.161
278.555	46.219	2011.799	2238.157
279.570	45.968	2009.298	2232.359
280.585	45.211	2006.239	2220.431
281.599	44.938	2004.961	2215.766
282.614	45.579	2005.630	2223.236
283.628	46.572	2006.403	2234.664
284.643	47.282	2006.987	2242.783
285.657	47.510	2005.750	2243.612
286.672	47.119	2003.149	2236.190
287.687	47.133	2001.091	2233.776
288.701	46.947	1999.237	2229.417
289.716	46.969	1998.357	2228.412
290.730	46.993	1996.765	2226.627
291.745	46.986	1995.612	2224.997
292.760	46.577	1993.666	2218.136
293.774	46.185	1991.937	2211.707
294.789	46.709	1991.276	2216.378
295.803	46.662	1990.081	2214.266
296.818	46.815	1988.261	2213.629
297.833	46.849	1987.166	2212.515
298.847	47.120	1987.218	2215.224
299.862	47.304	1984.702	2214.137
300.876	46.167	1978.926	2195.229
301.891	41.043	1961.682	2121.114
302.906	36.682	1956.957	2068.994
303.920	42.525	1971.322	2146.965
304.935	46.011	1974.635	2187.751
305.949	46.365	1973.029	2189.495
306.964	47.105	1974.313	2198.576
307.979	47.405	1972.448	2199.438
308.993	45.840	1967.087	2176.515
310.008	45.369	1964.685	2168.573
311.022	46.198	1965.679	2178.247
312.037	46.767	1965.457	2183.804
313.052	46.706	1962.658	2179.780
314.066	45.876	1958.405	2165.998
315.081	45.674	1956.520	2161.509
316.095	45.735	1955.420	2160.685
317.110	45.577	1954.466	2157.694
318.125	45.907	1954.135	2160.569
319.139	46.133	1953.985	2162.536
320.154	46.958	1954.141	2171.174
321.168	47.402	1953.539	2174.925
322.183	47.472	1952.485	2174.238
323.197	47.223	1951.621	2170.384
324.212	46.929	1947.859	2162.847
325.227	46.424	1944.921	2154.020
326.241	46.187	1942.797	2148.910
327.256	46.298	1940.511	2147.293
328.270	46.274	1940.636	2146.921
329.285	46.356	1940.506	2147.384
330.300	45.100	1932.619	2125.261
331.314	38.321	1915.138	2035.173
332.329	36.516	1915.805	2016.720
333.343	42.919	1928.828	2097.524
334.358	46.818	1933.172	2142.808
335.373	47.505	1933.650	2150.251
336.387	47.560	1932.735	2149.554
337.402	47.515	1930.263	2146.075
338.416	47.143	1926.942	2138.261
339.431	47.159	1926.520	2137.700
340.446	47.972	1926.881	2146.296
341.460	48.303	1926.678	2149.242
342.475	48.329	1923.993	2146.259
343.489	47.344	1919.553	2130.870
344.504	46.654	1918.543	2122.350
345.519	46.878	1916.892	2122.583
346.533	46.898	1914.085	2119.433
347.548	46.761	1911.774	2115.208
348.562	46.252	1910.193	2107.961
349.577	46.287	1910.396	2108.298
350.592	47.011	1910.393	2115.499
351.606	47.407	1909.599	2118.432
352.621	47.518	1908.630	2118.242
353.635	47.205	1906.584	2112.511
354.650	46.727	1903.928	2104.411
355.665	46.408	1902.150	2098.927
356.679	46.461	1900.430	2097.319
357.694	46.355	1899.386	2094.828
358.708	46.680	1898.049	2096.432
359.723	45.345	1889.204	2072.811
360.738	38.397	1872.377	1983.602
361.752	37.042	1874.235	1971.502
362.767	42.898	1884.924	2042.460
363.781	45.425	1888.421	2071.782
364.796	46.847	1888.827	2086.436
365.810	46.308	1885.695	2077.263
366.825	45.677	1882.246	2066.822
367.840	46.074	1882.278	2070.629
368.854	45.724	1881.233	2065.684
369.869	45.466	1879.695	2061.137
370.883	45.375	1878.437	2058.589
371.898	45.540	1877.148	2058.605
372.913	45.929	1875.939	2060.958
373.927	45.973	1875.015	2060.137
374.942	45.962	1874.851	2059.605
375.956	46.387	1874.153	2062.870
376.971	46.270	1870.777	2057.732
377.986	46.551	1870.369	2059.858
379.000	47.280	1872.120	2068.876
380.015	47.674	1870.828	2071.149
381.029	47.255	1867.665	2063.210
382.044	47.066	1866.280	2059.536
383.059	47.559	1864.265	2061.993
384.073	46.419	1861.647	2047.459
385.088	45.647	1859.473	2037.109
386.102	46.535	1859.972	2046.295
387.117	47.510	1860.452	2056.304
388.132	47.639	1860.700	2057.618
389.146	46.094	1852.102	2032.512
390.161	38.733	1832.593	1938.059
391.175	36.564	1831.756	1915.378
392.190	43.490	1842.726	1995.689
393.205	45.864	1845.137	2021.620
394.219	46.202	1844.226	2023.727
395.234	46.197	1842.488	2021.525
396.248	45.658	1840.620	2013.914
397.263	45.917	1837.551	2012.864
398.278	45.666	1835.599	2008.022
399.292	45.349	1835.501	2004.546
400.307	46.648	1838.626	2020.531
401.321	47.355	1837.203	2025.679
402.336	46.702	1834.635	2016.194
403.350	46.727	1832.558	2013.914
404.365	47.321	1833.712	2020.775
405.380	48.096	1833.415	2027.807
406.394	47.989	1831.710	2024.626
407.409	47.102	1828.422	2012.076
408.423	46.574	1825.504	2003.465
409.438	46.686	1824.724	2003.462
410.453	46.998	1824.412	2005.930
411.467	46.980	1823.143	2004.112
412.482	47.190	1823.577	2006.400
413.496	47.567	1821.503	2007.552
414.511	47.087	1819.113	2000.013
415.526	47.087	1816.637	1997.051
416.540	47.939	1817.164	2005.661
417.555	47.521	1814.837	1998.796
418.569	46.299	1812.799	1984.470
419.584	47.037	1813.517	1992.180
420.599	47.154	1811.977	1991.379
421.613	45.825	1809.066	1975.084
422.628	45.207	1807.136	1966.764
423.642	46.657	1808.749	1982.313
424.657	47.182	1805.449	1983.524
425.672	45.188	1800.822	1959.005
426.686	45.485	1800.900	1961.720
427.701	45.856	1800.719	1964.857
428.715	46.954	1801.961	1976.555
429.730	48.683	1803.825	1994.988
430.745	49.331	1804.303	2001.502
431.759	48.951	1802.225	1995.317
432.774	47.104	1793.522	1967.784
433.788	38.444	1770.257	1859.764
434.803	30.565	1755.834	1769.361
435.818	29.460	1752.925	1755.661
436.832	29.473	1752.410	1755.061
437.847	28.753	1746.530	1742.103
438.861	19.387	1716.538	1623.777
439.876	4.801	1689.012	1460.811
440.890	0.837	1680.680	1416.188
441.905	0.499	1679.033	1411.453
442.920	0.419	1677.872	1409.558
443.934	0.312	1677.167	1407.792
444.949	0.433	1675.650	1407.480
445.963	0.348	1674.800	1405.801
446.978	0.259	1674.897	1404.880
447.993	0.300	1673.295	1403.754
449.007	0.245	1671.854	1401.860
450.022	0.311	1669.644	1400.457
451.036	0.330	1668.195	1399.254
452.051	1.144	1673.148	1410.855
453.066	11.880	1699.836	1534.793
454.080	26.269	1725.215	1694.159
455.095	30.756	1733.633	1744.614
456.109	32.107	1734.701	1758.205
457.124	32.795	1734.428	1764.183
458.139	32.125	1732.164	1755.375
459.153	31.752	1729.883	1749.361
460.168	31.730	1728.585	1747.633
461.182	31.840	1727.640	1747.493
462.197	32.161	1726.030	1748.657
463.212	32.331	1724.707	1748.705
464.226	32.498	1724.114	1749.454
465.241	32.557	1722.868	1748.531
466.255	32.511	1721.842	1746.850
467.270	32.260	1720.421	1742.858
468.285	32.545	1719.436	1744.302
469.299	32.859	1718.731	1746.307
470.314	33.153	1717.198	1747.271
471.328	33.152	1715.285	1745.105
472.343	33.120	1715.746	1745.067
473.358	33.502	1714.429	1747.062
474.372	33.245	1713.388	1743.405
475.387	33.736	1713.093	1747.442
476.401	33.715	1710.964	1744.873
477.416	33.329	1708.562	1738.651
478.430	33.126	1707.518	1735.509
479.445	33.278	1708.034	1737.225
480.460	33.690	1706.155	1738.901
481.474	33.680	1704.846	1737.266
482.489	33.639	1704.385	1736.209
483.503	33.346	1701.726	1730.605
484.518	33.179	1699.883	1726.993
485.533	33.170	1698.751	1725.551
486.547	33.083	1696.411	1722.174
487.562	32.331	1694.083	1712.724
488.576	32.685	1693.169	1714.825
489.591	33.181	1693.585	1719.582
490.606	33.497	1693.610	1722.283
491.620	33.657	1691.613	1721.508
492.635	33.322	1688.575	1715.160
493.649	32.782	1686.203	1707.634
494.664	32.807	1686.707	1708.166
495.679	33.205	1685.764	1710.631
496.693	33.303	1683.945	1709.463
497.708	33.064	1682.101	1705.219
498.722	32.746	1680.180	1700.189
499.737	32.844	1678.657	1699.334
500.752	32.966	1677.130	1698.682
501.766	32.853	1676.540	1696.864
502.781	32.576	1675.077	1692.676
503.795	32.552	1673.588	1690.751
504.810	32.707	1671.818	1690.158
505.825	32.381	1671.229	1686.430
506.839	32.286	1669.647	1683.776
507.854	32.151	1667.752	1680.446
508.868	32.188	1665.695	1678.503
509.883	31.841	1664.322	1673.804
510.898	31.516	1663.046	1669.409
511.912	31.532	1660.486	1666.781
512.927	31.638	1658.616	1665.650
513.941	31.600	1657.306	1663.800
514.956	31.813	1657.866	1666.068
515.971	32.285	1657.798	1670.012
516.985	31.976	1655.665	1664.907
518.000	31.416	1654.000	1658.044
519.014	31.299	1651.679	1654.473
520.029	31.303	1649.970	1652.601
521.043	31.220	1648.441	1650.133
522.058	31.505	1647.291	1651.321
523.073	31.637	1646.460	1651.455
524.087	31.306	1645.359	1647.223
525.102	31.362	1644.554	1646.716
526.116	31.987	1644.606	1652.099
527.131	32.205	1643.981	1653.206
528.146	32.096	1641.916	1649.968
529.160	31.881	1641.034	1646.984
530.175	32.066	1640.017	1647.398
531.189	32.209	1639.038	1647.481
532.204	32.184	1637.811	1645.826
533.219	32.441	1637.893	1647.977
534.233	32.866	1638.453	1652.082
535.248	32.855	1636.276	1649.591
536.262	32.403	1634.272	1643.411
537.277	32.481	1633.687	1643.313
538.292	32.861	1633.168	1645.923
539.306	33.073	1630.447	1644.840
540.321	32.640	1628.004	1638.397
541.335	32.102	1626.387	1631.874
542.350	32.421	1625.733	1633.805
543.365	32.929	1624.673	1636.969
544.379	32.878	1623.218	1634.865
545.394	32.695	1622.008	1631.860
546.408	32.737	1621.079	1631.100
547.423	33.100	1620.605	1633.574
548.438	32.998	1619.659	1631.545
549.452	32.929	1617.715	1628.794
550.467	32.836	1616.652	1626.722
551.481	32.768	1614.634	1623.911
552.496	32.517	1613.397	1620.298
553.511	31.966	1611.876	1613.816
554.525	31.982	1609.388	1611.264
555.540	31.613	1609.071	1607.575
556.554	31.600	1608.113	1606.313
557.569	31.595	1606.218	1604.180
558.583	31.721	1604.648	1603.505
559.598	31.712	1603.573	1602.163
560.613	31.650	1602.435	1600.306
561.627	31.340	1600.605	1595.626
562.642	31.126	1598.204	1591.203
563.656	30.702	1596.522	1585.706
564.671	30.617	1594.695	1582.978
565.686	30.530	1593.715	1581.073
566.700	30.764	1592.350	1581.528
567.715	30.876	1591.648	1581.592
568.729	31.107	1590.991	1582.721
569.744	31.823	1590.391	1588.034
570.759	31.854	1589.139	1586.859
571.773	31.336	1587.617	1580.746
572.788	31.054	1585.605	1576.162
573.802	30.880	1583.781	1572.679
574.817	30.810	1581.063	1569.202
575.832	30.441	1580.415	1565.240
576.846	30.696	1580.147	1566.953
577.861	31.171	1579.625	1570.259
578.875	31.291	1579.299	1570.769
579.890	31.299	1578.010	1569.359
580.905	31.363	1576.653	1568.368
581.919	31.375	1575.999	1567.632
582.934	31.306	1575.560	1566.422
583.948	31.265	1573.562	1563.900
584.963	31.411	1573.648	1565.034
585.978	31.970	1572.306	1568.210
586.992	32.151	1571.508	1568.743
588.007	31.710	1571.142	1564.489
589.021	31.871	1569.489	1564.003
590.036	31.431	1567.278	1557.927
591.051	31.432	1565.555	1556.035
592.065	31.573	1564.184	1555.669
593.080	31.712	1563.402	1555.869
594.094	31.914	1562.615	1556.584
595.109	32.146	1562.026	1557.740
596.123	32.509	1561.189	1559.742
597.138	32.322	1559.274	1556.089
598.153	32.004	1557.148	1551.141
599.167	31.897	1555.925	1548.849
600.182	31.926	1554.567	1547.555
601.196	31.891	1554.084	1546.594
602.211	31.847	1552.505	1544.471
603.226	31.448	1550.765	1539.256
604.240	31.393	1549.482	1537.342
605.255	31.486	1547.339	1535.803
606.269	31.222	1546.989	1533.089
607.284	31.208	1545.236	1531.055
608.299	30.970	1543.609	1527.299
609.313	31.132	1542.421	1527.278
610.328	31.061	1540.643	1524.746
611.342	30.926	1539.217	1522.046
612.357	30.758	1538.356	1519.636
613.372	30.669	1537.175	1517.558
614.386	30.714	1536.179	1516.758
615.401	30.605	1535.311	1514.830
616.415	30.336	1534.294	1511.438
617.430	30.071	1533.041	1507.860
618.445	30.012	1530.863	1505.054
619.459	30.059	1530.596	1505.000
620.474	30.297	1530.031	1506.206
621.488	30.926	1530.553	1511.671
622.503	31.911	1530.275	1519.238
623.518	31.211	1527.251	1510.359
624.532	30.373	1524.867	1501.020
625.547	30.129	1523.114	1497.134
626.561	29.905	1521.958	1494.001
627.576	29.836	1520.879	1492.202
628.591	30.313	1521.035	1496.046
629.605	30.817	1520.503	1499.421
630.620	31.156	1519.902	1501.388
631.634	32.019	1520.138	1508.421
632.649	32.084	1518.472	1507.113
633.663	31.220	1516.094	1497.608
634.678	30.455	1513.660	1488.864
635.693	29.906	1511.264	1481.908
636.707	29.823	1509.177	1479.017
637.722	29.685	1508.274	1476.849
638.736	29.863	1507.346	1477.191
639.751	30.112	1507.127	1478.802
640.766	30.273	1505.814	1478.622
641.780	30.280	1504.328	1477.044
642.795	30.460	1504.279	1478.258
643.809	30.776	1503.032	1479.382
644.824	30.813	1502.763	1479.233
645.839	31.068	1502.419	1480.750
646.853	31.006	1501.036	1478.721
647.868	31.069	1500.073	1478.092
648.882	31.281	1498.507	1478.066
649.897	31.398	1497.834	1478.149
650.912	31.382	1496.511	1476.543
651.926	31.347	1495.270	1474.865
652.941	31.321	1493.977	1473.206
653.955	30.951	1492.570	1468.708
654.970	30.697	1489.812	1463.816
655.985	30.450	1488.264	1460.165
656.999	30.146	1486.255	1455.621
658.014	30.185	1484.640	1454.169
659.028	30.477	1484.548	1456.210
660.043	31.038	1484.927	1460.824
661.058	31.323	1484.364	1462.341
662.072	31.424	1482.893	1461.512
663.087	31.389	1482.675	1460.846
664.101	31.329	1481.509	1459.048
665.116	31.188	1479.971	1456.255
666.131	30.845	1478.712	1452.153
667.145	30.904	1477.778	1451.524
668.160	30.773	1475.839	1448.420
669.174	30.521	1473.694	1444.175
670.189	30.529	1472.420	1442.819
671.204	30.750	1471.903	1443.862
672.218	30.605	1471.416	1442.080
673.233	30.634	1470.204	1440.944
674.247	30.503	1468.107	1437.698
675.262	30.314	1466.994	1434.970
676.276	30.268	1465.190	1432.678
677.291	30.366	1465.064	1433.139
678.306	30.610	1464.518	1434.326
679.320	30.464	1463.268	1431.799
680.335	30.067	1462.298	1427.601
681.349	29.990	1461.205	1425.773
682.364	29.951	1460.146	1424.263
683.379	29.940	1458.393	1422.299
684.393	29.837	1456.996	1419.971
685.408	29.852	1455.486	1418.444
686.422	29.666	1454.188	1415.584
687.437	29.631	1453.175	1414.155
688.452	29.432	1452.171	1411.477
689.466	29.288	1450.645	1408.720
690.481	29.575	1449.061	1409.219
691.495	29.821	1449.699	1411.556
692.510	30.757	1450.719	1419.556
693.525	31.696	1450.147	1426.020
694.539	31.242	1447.838	1420.111
695.554	30.036	1445.333	1408.275
696.568	29.441	1443.514	1401.790
697.583	29.376	1442.019	1399.677
698.598	29.425	1441.044	1398.932
699.612	29.379	1440.065	1397.462
700.627	29.507	1438.784	1397.030
701.641	29.872	1437.904	1398.778
702.656	29.917	1437.464	1398.530
703.671	30.028	1436.862	1398.619
704.685	30.001	1436.848	1398.233
705.700	30.162	1436.333	1398.781
706.714	30.351	1434.918	1398.667
707.729	30.730	1433.794	1400.278
708.744	30.847	1432.655	1399.878
709.758	30.668	1430.963	1396.706
710.773	30.010	1429.548	1390.197
711.787	29.887	1427.333	1386.947
712.802	30.336	1426.627	1389.473
713.816	30.687	1426.101	1391.435
714.831	30.741	1425.608	1391.198
715.846	30.624	1424.179	1388.757
716.860	30.498	1422.531	1386.037
717.875	30.522	1422.074	1385.606
718.889	30.578	1420.750	1384.567
719.904	30.567	1419.289	1382.899
720.919	30.402	1418.318	1380.556
721.933	30.328	1417.182	1378.732
722.948	30.175	1416.101	1376.370
723.962	30.115	1414.634	1374.337
724.977	29.968	1412.693	1371.193
725.992	29.811	1411.939	1369.128
727.006	30.035	1410.724	1369.449
728.021	30.061	1410.051	1368.825
729.035	29.843	1408.616	1365.651
730.050	29.909	1407.007	1364.416
731.065	29.850	1406.048	1362.885
732.079	29.661	1405.286	1360.588
733.094	29.720	1404.513	1360.109
734.108	29.987	1402.397	1359.870
735.123	29.819	1401.383	1357.482
736.138	29.715	1399.797	1355.021
737.152	29.601	1399.780	1354.002
738.167	29.516	1398.657	1352.124
739.181	29.565	1397.168	1350.889
740.196	29.565	1396.069	1349.658
741.211	29.469	1395.363	1348.116
742.225	29.320	1394.688	1346.204
743.240	29.432	1392.921	1345.161
744.254	29.241	1391.523	1342.248
745.269	29.131	1390.497	1340.298
746.284	28.966	1389.695	1338.158
747.298	29.083	1388.530	1337.726
748.313	29.280	1388.530	1339.009
749.327	29.942	1388.725	1343.868
750.342	30.781	1388.931	1350.027
751.356	31.464	1388.960	1354.867
752.371	31.391	1386.748	1352.018
753.386	30.100	1383.733	1339.545
754.400	29.327	1381.949	1332.047
755.415	29.517	1380.397	1331.768
756.429	29.600	1379.396	1331.243
757.444	29.752	1378.638	1331.450
758.459	29.599	1377.813	1329.392
759.473	29.586	1376.215	1327.597
760.488	29.631	1374.624	1326.225
761.502	29.600	1374.256	1325.490
762.517	29.780	1374.101	1326.476
763.532	29.990	1373.146	1326.909
764.546	30.148	1370.515	1325.343
765.561	29.916	1370.151	1323.164
766.575	29.397	1369.234	1318.392
767.590	29.387	1367.478	1316.472
768.605	29.870	1367.023	1319.344
769.619	30.159	1366.837	1321.076
770.634	30.129	1365.261	1319.180
771.648	29.630	1364.164	1314.394
772.663	29.602	1362.589	1312.516
773.678	29.577	1361.441	1311.080
774.692	29.487	1360.909	1309.765
775.707	29.460	1360.840	1309.349
776.721	29.380	1359.351	1307.193
777.736	29.310	1357.644	1304.897
778.751	29.463	1356.393	1304.627
779.765	29.389	1355.205	1302.797
780.780	29.217	1354.694	1300.935
781.794	29.351	1353.329	1300.415
782.809	29.141	1352.455	1297.934
783.824	28.783	1351.612	1294.435
784.838	29.179	1351.321	1296.803
785.853	30.131	1352.203	1304.233
786.867	30.037	1350.861	1302.118
787.882	29.403	1349.350	1296.031
788.897	29.248	1347.463	1292.965
789.911	28.901	1345.958	1288.925
790.926	28.867	1344.318	1286.958
791.940	28.827	1343.096	1285.356
792.955	28.593	1341.997	1282.507
793.969	28.552	1340.761	1280.886
794.984	28.755	1340.440	1281.844
795.999	28.822	1339.429	1281.195
797.013	29.034	1337.337	1280.528
798.028	28.915	1336.312	1278.559
799.042	28.961	1335.869	1278.303
800.057	28.749	1335.076	1275.915
801.072	29.106	1333.432	1276.677
802.086	29.103	1331.373	1274.534
803.101	28.951	1331.162	1273.123
804.115	28.895	1330.439	1271.882
805.130	29.072	1329.370	1271.939
806.145	29.128	1328.219	1271.078
807.159	29.157	1326.770	1269.736
808.174	29.339	1326.462	1270.554
809.188	29.535	1325.825	1271.148
810.203	29.654	1324.544	1270.586
811.218	29.727	1322.561	1269.040
812.232	29.386	1321.221	1265.249
813.247	29.137	1320.247	1262.453
814.261	29.186	1320.934	1263.297
815.276	29.455	1319.213	1263.351
816.291	29.292	1317.278	1260.226
817.305	29.140	1316.428	1258.219
818.320	29.007	1314.694	1255.496
819.334	29.022	1313.822	1254.619
820.349	28.945	1312.051	1252.248
821.364	28.785	1310.822	1249.828
822.378	28.791	1309.738	1248.690
823.393	28.899	1307.783	1247.412
824.407	28.718	1306.302	1244.618
825.422	28.610	1306.464	1243.889
826.437	28.735	1305.561	1243.726
827.451	28.583	1303.923	1240.985
828.466	29.309	1303.735	1245.590
829.480	29.913	1302.383	1248.246
830.495	29.567	1300.042	1243.508
831.509	28.861	1298.349	1236.967
832.524	28.657	1297.162	1234.311
833.539	28.663	1296.275	1233.364
834.553	28.591	1294.932	1231.452
835.568	28.534	1294.096	1230.126
836.582	28.614	1293.190	1229.655
837.597	28.918	1291.903	1230.328
838.612	28.915	1290.425	1228.754
839.626	29.025	1289.676	1228.633
840.641	29.105	1289.203	1228.572
841.655	29.080	1288.892	1227.959
842.670	28.910	1287.638	1225.478
843.685	28.897	1285.650	1223.350
844.699	29.140	1284.769	1223.993
845.714	29.064	1283.197	1221.842
846.728	28.861	1282.606	1219.779
847.743	28.959	1281.398	1219.134
848.758	28.894	1280.127	1217.350
849.772	28.683	1278.731	1214.469
850.787	28.679	1277.181	1212.825
851.801	28.530	1276.386	1210.941
852.816	28.507	1275.392	1209.696
853.831	28.546	1273.679	1208.185
854.845	28.418	1272.246	1205.835
855.860	28.419	1270.539	1204.083
856.874	28.415	1269.581	1203.000
857.889	28.733	1269.837	1205.199
858.904	29.406	1269.344	1209.024
859.918	29.989	1267.972	1211.408
860.933	30.344	1267.273	1212.927
861.947	29.881	1266.013	1208.535
862.962	29.105	1264.103	1201.481
863.977	28.940	1261.791	1198.056
864.991	28.533	1260.825	1194.335
866.006	28.439	1260.305	1193.083
867.020	28.514	1258.485	1191.707
868.035	28.542	1257.585	1190.893
869.049	28.514	1256.529	1189.572
870.064	28.658	1255.386	1189.284
871.079	28.617	1255.212	1188.712
872.093	28.579	1254.711	1187.844
873.108	28.762	1253.839	1188.071
874.122	28.865	1252.068	1186.916
875.137	28.721	1251.902	1185.681
876.152	28.758	1251.140	1185.057
877.166	28.835	1249.537	1183.899
878.181	28.657	1247.801	1180.956
879.195	28.778	1247.203	1181.033
880.210	28.488	1246.172	1178.041
881.225	28.559	1245.022	1177.272
882.239	28.276	1244.944	1175.233
883.254	28.482	1243.505	1175.062
884.268	28.453	1242.197	1173.496
885.283	28.413	1241.190	1172.152
886.298	28.502	1239.209	1170.710
887.312	28.504	1238.019	1169.457
888.327	28.491	1236.973	1168.244
889.341	28.262	1236.028	1165.748
890.356	28.311	1235.491	1165.418
891.371	28.336	1235.649	1165.586
892.385	28.460	1234.951	1165.580
893.400	28.503	1233.693	1164.525
894.414	28.548	1233.068	1164.083
895.429	28.840	1232.713	1165.476
896.444	29.843	1232.344	1171.370
897.458	30.937	1231.830	1177.696
898.473	30.456	1229.847	1172.610
899.487	29.352	1227.875	1163.593
900.502	28.594	1226.012	1156.886
901.517	28.358	1224.378	1153.712
902.531	28.471	1223.177	1153.157
903.546	28.446	1222.778	1152.486
904.560	28.287	1222.093	1150.695
905.575	28.296	1221.245	1149.813
906.589	28.352	1219.919	1148.780
907.604	28.494	1219.350	1149.006
